Unit Serial No : 240-LV0P465-EU
Integration Time : 60 ms
Time Average: 11
Binning Average: 0
FFT Smoothing: 0%
Project Name : Project Name
Sample Name : Sample Name
Measurement No : 1
Measurement Time : 09/18/2007   10:20:02

Wavelength(nm)	Wavenumber(1/cm)	Intensity(Counts)
350.0000      	28571.4286    	1573.18176    
350.5000      	28530.6705    	1552.00000    
351.0000      	28490.0285    	1546.81824    
351.5000      	28449.5021    	1555.54541    
352.0000      	28409.0909    	1525.63635    
352.5000      	28368.7943    	1512.90906    
353.0000      	28328.6119    	1486.00000    
353.5000      	28288.5431    	1552.18176    
354.0000      	28248.5876    	1439.00000    
354.5000      	28208.7447    	1441.90906    
355.0000      	28169.0141    	1476.18176    
355.5000      	28129.3952    	1521.27271    
356.0000      	28089.8876    	1415.90906    
356.5000      	28050.4909    	1475.54541    
357.0000      	28011.2045    	1464.18176    
357.5000      	27972.0280    	1494.27271    
358.0000      	27932.9609    	1488.63635    
358.5000      	27894.0028    	1646.63635    
359.0000      	27855.1532    	1493.54541    
359.5000      	27816.4117    	1538.18176    
360.0000      	27777.7778    	1502.45459    
360.5000      	27739.2510    	1501.90906    
361.0000      	27700.8310    	1497.00000    
361.5000      	27662.5173    	1585.27271    
362.0000      	27624.3094    	1529.27271    
362.5000      	27586.2069    	1574.81824    
363.0000      	27548.2094    	1570.09094    
363.5000      	27510.3164    	1459.09094    
364.0000      	27472.5275    	1386.63635    
364.5000      	27434.8422    	1439.27271    
365.0000      	27397.2603    	1464.09094    
365.5000      	27359.7811    	1535.63635    
366.0000      	27322.4044    	1548.18176    
366.5000      	27285.1296    	1536.36365    
367.0000      	27247.9564    	1530.27271    
367.5000      	27210.8844    	1608.81824    
368.0000      	27173.9130    	1501.09094    
368.5000      	27137.0421    	1612.63635    
369.0000      	27100.2710    	1499.81824    
369.5000      	27063.5995    	1494.36365    
370.0000      	27027.0270    	1591.18176    
370.5000      	26990.5533    	1429.54541    
371.0000      	26954.1779    	1532.45459    
371.5000      	26917.9004    	1463.18176    
372.0000      	26881.7204    	1475.45459    
372.5000      	26845.6376    	1546.63635    
373.0000      	26809.6515    	1474.54541    
373.5000      	26773.7617    	1542.63635    
374.0000      	26737.9679    	1613.90906    
374.5000      	26702.2697    	1516.09094    
375.0000      	26666.6667    	1452.09094    
375.5000      	26631.1585    	1516.90906    
376.0000      	26595.7447    	1502.54541    
376.5000      	26560.4250    	1444.45459    
377.0000      	26525.1989    	1516.45459    
377.5000      	26490.0662    	1537.90906    
378.0000      	26455.0265    	1487.63635    
378.5000      	26420.0793    	1490.54541    
379.0000      	26385.2243    	1507.18176    
379.5000      	26350.4611    	1507.27271    
380.0000      	26315.7895    	1468.09094    
380.5000      	26281.2089    	1481.09094    
381.0000      	26246.7192    	1480.18176    
381.5000      	26212.3198    	1463.72729    
382.0000      	26178.0105    	1503.00000    
382.5000      	26143.7908    	1544.81824    
383.0000      	26109.6606    	1557.54541    
383.5000      	26075.6193    	1468.00000    
384.0000      	26041.6667    	1629.27271    
384.5000      	26007.8023    	1481.90906    
385.0000      	25974.0260    	1472.63635    
385.5000      	25940.3372    	1475.54541    
386.0000      	25906.7358    	1432.63635    
386.5000      	25873.2212    	1494.81824    
387.0000      	25839.7933    	1526.81824    
387.5000      	25806.4516    	1462.00000    
388.0000      	25773.1959    	1517.18176    
388.5000      	25740.0257    	1500.00000    
389.0000      	25706.9409    	1488.90906    
389.5000      	25673.9409    	1530.81824    
390.0000      	25641.0256    	1496.81824    
390.5000      	25608.1946    	1458.00000    
391.0000      	25575.4476    	1502.63635    
391.5000      	25542.7842    	1565.81824    
392.0000      	25510.2041    	1448.18176    
392.5000      	25477.7070    	1441.00000    
393.0000      	25445.2926    	1539.45459    
393.5000      	25412.9606    	1445.18176    
394.0000      	25380.7107    	1590.45459    
394.5000      	25348.5425    	1447.54541    
395.0000      	25316.4557    	1519.81824    
395.5000      	25284.4501    	1500.18176    
396.0000      	25252.5253    	1625.09094    
396.5000      	25220.6810    	1515.90906    
397.0000      	25188.9169    	1544.54541    
397.5000      	25157.2327    	1530.81824    
398.0000      	25125.6281    	1521.63635    
398.5000      	25094.1029    	1460.09094    
399.0000      	25062.6566    	1542.00000    
399.5000      	25031.2891    	1583.90906    
400.0000      	25000.0000    	1542.72729    
400.5000      	24968.7890    	1484.36365    
401.0000      	24937.6559    	1495.81824    
401.5000      	24906.6002    	1536.09094    
402.0000      	24875.6219    	1609.54541    
402.5000      	24844.7205    	1535.27271    
403.0000      	24813.8958    	1433.72729    
403.5000      	24783.1475    	1477.63635    
404.0000      	24752.4752    	1503.18176    
404.5000      	24721.8789    	1584.00000    
405.0000      	24691.3580    	1539.81824    
405.5000      	24660.9125    	1506.36365    
406.0000      	24630.5419    	1483.18176    
406.5000      	24600.2460    	1434.72729    
407.0000      	24570.0246    	1528.18176    
407.5000      	24539.8773    	1475.27271    
408.0000      	24509.8039    	1455.09094    
408.5000      	24479.8042    	1479.63635    
409.0000      	24449.8778    	1423.54541    
409.5000      	24420.0244    	1519.09094    
410.0000      	24390.2439    	1523.81824    
410.5000      	24360.5359    	1627.27271    
411.0000      	24330.9002    	1546.00000    
411.5000      	24301.3366    	1517.63635    
412.0000      	24271.8447    	1557.27271    
412.5000      	24242.4242    	1453.45459    
413.0000      	24213.0751    	1550.54541    
413.5000      	24183.7969    	1512.18176    
414.0000      	24154.5894    	1488.81824    
414.5000      	24125.4524    	1463.09094    
415.0000      	24096.3855    	1406.81824    
415.5000      	24067.3887    	1481.18176    
416.0000      	24038.4615    	1530.36365    
416.5000      	24009.6038    	1525.36365    
417.0000      	23980.8153    	1479.09094    
417.5000      	23952.0958    	1441.45459    
418.0000      	23923.4450    	1540.18176    
418.5000      	23894.8626    	1516.54541    
419.0000      	23866.3484    	1498.09094    
419.5000      	23837.9023    	1448.09094    
420.0000      	23809.5238    	1501.54541    
420.5000      	23781.2128    	1524.90906    
421.0000      	23752.9691    	1474.63635    
421.5000      	23724.7924    	1456.36365    
422.0000      	23696.6825    	1516.63635    
422.5000      	23668.6391    	1502.00000    
423.0000      	23640.6619    	1524.90906    
423.5000      	23612.7509    	1454.90906    
424.0000      	23584.9057    	1495.36365    
424.5000      	23557.1260    	1560.63635    
425.0000      	23529.4118    	1468.45459    
425.5000      	23501.7626    	1445.90906    
426.0000      	23474.1784    	1455.27271    
426.5000      	23446.6589    	1508.09094    
427.0000      	23419.2037    	1479.54541    
427.5000      	23391.8129    	1508.72729    
428.0000      	23364.4860    	1450.00000    
428.5000      	23337.2229    	1493.45459    
429.0000      	23310.0233    	1605.18176    
429.5000      	23282.8871    	1530.90906    
430.0000      	23255.8140    	1486.00000    
430.5000      	23228.8037    	1501.27271    
431.0000      	23201.8561    	1585.36365    
431.5000      	23174.9710    	1463.72729    
432.0000      	23148.1481    	1434.18176    
432.5000      	23121.3873    	1455.09094    
433.0000      	23094.6882    	1394.90906    
433.5000      	23068.0507    	1460.90906    
434.0000      	23041.4747    	1576.18176    
434.5000      	23014.9597    	1456.54541    
435.0000      	22988.5057    	1508.00000    
435.5000      	22962.1125    	1557.09094    
436.0000      	22935.7798    	1511.45459    
436.5000      	22909.5074    	1441.72729    
437.0000      	22883.2952    	1447.18176    
437.5000      	22857.1429    	1491.81824    
438.0000      	22831.0502    	1441.09094    
438.5000      	22805.0171    	1390.72729    
439.0000      	22779.0433    	1415.00000    
439.5000      	22753.1286    	1360.81824    
440.0000      	22727.2727    	1660.45459    
440.5000      	22701.4756    	1530.27271    
441.0000      	22675.7370    	1617.45459    
441.5000      	22650.0566    	1439.18176    
442.0000      	22624.4344    	1445.72729    
442.5000      	22598.8701    	1586.36365    
443.0000      	22573.3634    	1519.27271    
443.5000      	22547.9143    	1508.81824    
444.0000      	22522.5225    	1511.81824    
444.5000      	22497.1879    	1517.63635    
445.0000      	22471.9101    	1532.63635    
445.5000      	22446.6891    	1376.72729    
446.0000      	22421.5247    	1408.00000    
446.5000      	22396.4166    	1522.90906    
447.0000      	22371.3647    	1428.54541    
447.5000      	22346.3687    	1471.63635    
448.0000      	22321.4286    	1505.00000    
448.5000      	22296.5440    	1410.45459    
449.0000      	22271.7149    	1498.36365    
449.5000      	22246.9410    	1583.90906    
450.0000      	22222.2222    	1485.00000    
450.5000      	22197.5583    	1531.72729    
451.0000      	22172.9490    	1545.81824    
451.5000      	22148.3942    	1508.45459    
452.0000      	22123.8938    	1435.81824    
452.5000      	22099.4475    	1439.54541    
453.0000      	22075.0552    	1495.63635    
453.5000      	22050.7166    	1444.90906    
454.0000      	22026.4317    	1413.72729    
454.5000      	22002.2002    	1418.27271    
455.0000      	21978.0220    	1460.90906    
455.5000      	21953.8968    	1491.18176    
456.0000      	21929.8246    	1504.27271    
456.5000      	21905.8050    	1508.54541    
457.0000      	21881.8381    	1559.45459    
457.5000      	21857.9235    	1544.90906    
458.0000      	21834.0611    	1490.00000    
458.5000      	21810.2508    	1403.18176    
459.0000      	21786.4924    	1588.54541    
459.5000      	21762.7856    	1492.00000    
460.0000      	21739.1304    	1525.63635    
460.5000      	21715.5266    	1467.45459    
461.0000      	21691.9740    	1493.63635    
461.5000      	21668.4724    	1578.36365    
462.0000      	21645.0216    	1543.00000    
462.5000      	21621.6216    	1432.27271    
463.0000      	21598.2721    	1472.90906    
463.5000      	21574.9730    	1454.63635    
464.0000      	21551.7241    	1439.36365    
464.5000      	21528.5253    	1492.36365    
465.0000      	21505.3763    	1584.81824    
465.5000      	21482.2771    	1445.36365    
466.0000      	21459.2275    	1709.27271    
466.5000      	21436.2272    	1412.63635    
467.0000      	21413.2762    	1473.63635    
467.5000      	21390.3743    	1522.90906    
468.0000      	21367.5214    	1461.81824    
468.5000      	21344.7172    	1486.09094    
469.0000      	21321.9616    	1595.36365    
469.5000      	21299.2545    	1524.36365    
470.0000      	21276.5957    	1447.18176    
470.5000      	21253.9851    	1545.72729    
471.0000      	21231.4225    	1522.27271    
471.5000      	21208.9077    	1427.09094    
472.0000      	21186.4407    	1385.81824    
472.5000      	21164.0212    	1448.09094    
473.0000      	21141.6490    	1476.27271    
473.5000      	21119.3242    	1440.36365    
474.0000      	21097.0464    	1551.36365    
474.5000      	21074.8156    	1467.09094    
475.0000      	21052.6316    	1358.09094    
475.5000      	21030.4942    	1468.54541    
476.0000      	21008.4034    	1438.36365    
476.5000      	20986.3589    	1445.27271    
477.0000      	20964.3606    	1474.54541    
477.5000      	20942.4084    	1530.45459    
478.0000      	20920.5021    	1545.00000    
478.5000      	20898.6416    	1514.81824    
479.0000      	20876.8267    	1491.45459    
479.5000      	20855.0574    	1474.63635    
480.0000      	20833.3333    	1471.09094    
480.5000      	20811.6545    	1465.54541    
481.0000      	20790.0208    	1485.09094    
481.5000      	20768.4320    	1396.00000    
482.0000      	20746.8880    	1434.54541    
482.5000      	20725.3886    	1551.36365    
483.0000      	20703.9337    	1487.09094    
483.5000      	20682.5233    	1518.27271    
484.0000      	20661.1570    	1505.00000    
484.5000      	20639.8349    	1485.81824    
485.0000      	20618.5567    	1493.18176    
485.5000      	20597.3223    	1526.63635    
486.0000      	20576.1317    	1547.45459    
486.5000      	20554.9846    	1386.18176    
487.0000      	20533.8809    	1452.27271    
487.5000      	20512.8205    	1463.45459    
488.0000      	20491.8033    	1611.63635    
488.5000      	20470.8291    	1444.09094    
489.0000      	20449.8978    	1434.00000    
489.5000      	20429.0092    	1535.45459    
490.0000      	20408.1633    	1511.36365    
490.5000      	20387.3598    	1490.36365    
491.0000      	20366.5988    	1449.00000    
491.5000      	20345.8800    	1546.63635    
492.0000      	20325.2033    	1479.45459    
492.5000      	20304.5685    	1450.36365    
493.0000      	20283.9757    	1582.45459    
493.5000      	20263.4245    	1412.81824    
494.0000      	20242.9150    	1480.09094    
494.5000      	20222.4469    	1507.00000    
495.0000      	20202.0202    	1498.18176    
495.5000      	20181.6347    	1418.27271    
496.0000      	20161.2903    	1499.90906    
496.5000      	20140.9869    	1478.27271    
497.0000      	20120.7243    	1460.36365    
497.5000      	20100.5025    	1574.72729    
498.0000      	20080.3213    	1444.54541    
498.5000      	20060.1805    	1428.18176    
499.0000      	20040.0802    	1588.36365    
499.5000      	20020.0200    	1510.27271    
500.0000      	20000.0000    	1428.00000    
500.5000      	19980.0200    	1475.63635    
501.0000      	19960.0798    	1505.18176    
501.5000      	19940.1795    	1467.81824    
502.0000      	19920.3187    	1493.45459    
502.5000      	19900.4975    	1445.72729    
503.0000      	19880.7157    	1393.27271    
503.5000      	19860.9732    	1473.72729    
504.0000      	19841.2698    	1455.63635    
504.5000      	19821.6056    	1545.18176    
505.0000      	19801.9802    	1489.18176    
505.5000      	19782.3937    	1426.54541    
506.0000      	19762.8458    	1463.09094    
506.5000      	19743.3366    	1379.90906    
507.0000      	19723.8659    	1461.54541    
507.5000      	19704.4335    	1512.09094    
508.0000      	19685.0394    	1536.72729    
508.5000      	19665.6834    	1404.90906    
509.0000      	19646.3654    	1464.09094    
509.5000      	19627.0854    	1599.54541    
510.0000      	19607.8431    	1663.36365    
510.5000      	19588.6386    	1484.90906    
511.0000      	19569.4716    	1455.45459    
511.5000      	19550.3421    	1534.18176    
512.0000      	19531.2500    	1581.90906    
512.5000      	19512.1951    	1413.45459    
513.0000      	19493.1774    	1415.00000    
513.5000      	19474.1967    	1406.09094    
514.0000      	19455.2529    	1476.00000    
514.5000      	19436.3460    	1438.90906    
515.0000      	19417.4757    	1431.09094    
515.5000      	19398.6421    	1529.27271    
516.0000      	19379.8450    	1415.45459    
516.5000      	19361.0842    	1468.72729    
517.0000      	19342.3598    	1402.72729    
517.5000      	19323.6715    	1478.00000    
518.0000      	19305.0193    	1426.27271    
518.5000      	19286.4031    	1388.36365    
519.0000      	19267.8227    	1357.36365    
519.5000      	19249.2782    	1457.45459    
520.0000      	19230.7692    	1469.45459    
520.5000      	19212.2959    	1465.27271    
521.0000      	19193.8580    	1470.36365    
521.5000      	19175.4554    	1425.00000    
522.0000      	19157.0881    	1477.09094    
522.5000      	19138.7560    	1493.00000    
523.0000      	19120.4589    	1506.63635    
523.5000      	19102.1968    	1458.72729    
524.0000      	19083.9695    	1463.63635    
524.5000      	19065.7769    	1444.09094    
525.0000      	19047.6190    	1480.90906    
525.5000      	19029.4957    	1410.54541    
526.0000      	19011.4068    	1398.63635    
526.5000      	18993.3523    	1562.27271    
527.0000      	18975.3321    	1430.09094    
527.5000      	18957.3460    	1357.81824    
528.0000      	18939.3939    	1481.09094    
528.5000      	18921.4759    	1537.54541    
529.0000      	18903.5917    	1459.00000    
529.5000      	18885.7413    	1462.81824    
530.0000      	18867.9245    	1454.09094    
530.5000      	18850.1414    	1398.36365    
531.0000      	18832.3917    	1477.00000    
531.5000      	18814.6754    	1453.81824    
532.0000      	18796.9925    	1480.27271    
532.5000      	18779.3427    	1476.09094    
533.0000      	18761.7261    	1450.09094    
533.5000      	18744.1425    	1419.18176    
534.0000      	18726.5918    	1482.81824    
534.5000      	18709.0739    	1444.54541    
535.0000      	18691.5888    	1519.72729    
535.5000      	18674.1363    	1435.54541    
536.0000      	18656.7164    	1522.27271    
536.5000      	18639.3290    	1456.63635    
537.0000      	18621.9739    	1457.36365    
537.5000      	18604.6512    	1462.27271    
538.0000      	18587.3606    	1459.81824    
538.5000      	18570.1021    	1448.36365    
539.0000      	18552.8757    	1448.27271    
539.5000      	18535.6812    	1470.63635    
540.0000      	18518.5185    	1389.00000    
540.5000      	18501.3876    	1448.09094    
541.0000      	18484.2884    	1509.90906    
541.5000      	18467.2207    	1477.54541    
542.0000      	18450.1845    	1488.09094    
542.5000      	18433.1797    	1393.54541    
543.0000      	18416.2063    	1493.72729    
543.5000      	18399.2640    	1499.18176    
544.0000      	18382.3529    	1441.81824    
544.5000      	18365.4729    	1423.63635    
545.0000      	18348.6239    	1532.72729    
545.5000      	18331.8057    	1466.63635    
546.0000      	18315.0183    	1550.27271    
546.5000      	18298.2617    	1452.45459    
547.0000      	18281.5356    	1450.54541    
547.5000      	18264.8402    	1456.27271    
548.0000      	18248.1752    	1474.36365    
548.5000      	18231.5406    	1405.72729    
549.0000      	18214.9362    	1496.90906    
549.5000      	18198.3621    	1500.36365    
550.0000      	18181.8182    	1458.72729    
550.5000      	18165.3043    	1507.09094    
551.0000      	18148.8203    	1367.45459    
551.5000      	18132.3663    	1446.90906    
552.0000      	18115.9420    	1420.09094    
552.5000      	18099.5475    	1441.00000    
553.0000      	18083.1826    	1394.36365    
553.5000      	18066.8473    	1589.27271    
554.0000      	18050.5415    	1507.18176    
554.5000      	18034.2651    	1466.27271    
555.0000      	18018.0180    	1415.36365    
555.5000      	18001.8002    	1429.18176    
556.0000      	17985.6115    	1391.63635    
556.5000      	17969.4519    	1390.63635    
557.0000      	17953.3214    	1419.27271    
557.5000      	17937.2197    	1451.18176    
558.0000      	17921.1470    	1474.45459    
558.5000      	17905.1030    	1437.09094    
559.0000      	17889.0877    	1476.81824    
559.5000      	17873.1010    	1592.54541    
560.0000      	17857.1429    	1525.36365    
560.5000      	17841.2132    	1476.18176    
561.0000      	17825.3119    	1537.09094    
561.5000      	17809.4390    	1397.81824    
562.0000      	17793.5943    	1518.90906    
562.5000      	17777.7778    	1516.27271    
563.0000      	17761.9893    	1477.54541    
563.5000      	17746.2289    	1418.72729    
564.0000      	17730.4965    	1513.81824    
564.5000      	17714.7919    	1541.18176    
565.0000      	17699.1150    	1434.81824    
565.5000      	17683.4660    	1424.54541    
566.0000      	17667.8445    	1544.36365    
566.5000      	17652.2507    	1468.18176    
567.0000      	17636.6843    	1466.00000    
567.5000      	17621.1454    	1467.63635    
568.0000      	17605.6338    	1494.09094    
568.5000      	17590.1495    	1471.63635    
569.0000      	17574.6924    	1523.36365    
569.5000      	17559.2625    	1519.45459    
570.0000      	17543.8596    	1510.72729    
570.5000      	17528.4838    	1462.54541    
571.0000      	17513.1349    	1556.18176    
571.5000      	17497.8128    	1621.36365    
572.0000      	17482.5175    	1518.45459    
572.5000      	17467.2489    	1673.45459    
573.0000      	17452.0070    	1514.54541    
573.5000      	17436.7916    	1604.45459    
574.0000      	17421.6028    	1554.09094    
574.5000      	17406.4404    	1578.36365    
575.0000      	17391.3043    	1595.90906    
575.5000      	17376.1946    	1574.90906    
576.0000      	17361.1111    	1580.27271    
576.5000      	17346.0538    	1535.18176    
577.0000      	17331.0225    	1532.00000    
577.5000      	17316.0173    	1514.72729    
578.0000      	17301.0381    	1591.09094    
578.5000      	17286.0847    	1547.45459    
579.0000      	17271.1572    	1614.09094    
579.5000      	17256.2554    	1546.90906    
580.0000      	17241.3793    	1816.36365    
580.5000      	17226.5289    	1638.90906    
581.0000      	17211.7040    	1593.54541    
581.5000      	17196.9046    	1510.54541    
582.0000      	17182.1306    	1573.45459    
582.5000      	17167.3820    	1585.63635    
583.0000      	17152.6587    	1512.81824    
583.5000      	17137.9606    	1599.00000    
584.0000      	17123.2877    	1510.27271    
584.5000      	17108.6399    	1502.36365    
585.0000      	17094.0171    	1519.81824    
585.5000      	17079.4193    	1444.00000    
586.0000      	17064.8464    	1530.27271    
586.5000      	17050.2984    	1502.18176    
587.0000      	17035.7751    	1513.18176    
587.5000      	17021.2766    	1534.09094    
588.0000      	17006.8027    	1586.63635    
588.5000      	16992.3534    	1565.54541    
589.0000      	16977.9287    	1603.27271    
589.5000      	16963.5284    	1589.00000    
590.0000      	16949.1525    	1691.09094    
590.5000      	16934.8010    	1593.90906    
591.0000      	16920.4738    	1570.00000    
591.5000      	16906.1708    	1643.54541    
592.0000      	16891.8919    	1568.18176    
592.5000      	16877.6371    	1619.00000    
593.0000      	16863.4064    	1569.18176    
593.5000      	16849.1997    	1604.63635    
594.0000      	16835.0168    	1540.09094    
594.5000      	16820.8579    	1780.27271    
595.0000      	16806.7227    	1641.18176    
595.5000      	16792.6113    	1583.09094    
596.0000      	16778.5235    	1719.90906    
596.5000      	16764.4593    	1663.45459    
597.0000      	16750.4188    	1612.45459    
597.5000      	16736.4017    	1613.72729    
598.0000      	16722.4080    	1732.36365    
598.5000      	16708.4378    	1745.63635    
599.0000      	16694.4908    	1806.72729    
599.5000      	16680.5671    	1697.81824    
600.0000      	16666.6667    	1723.90906    
600.5000      	16652.7893    	1754.90906    
601.0000      	16638.9351    	1797.18176    
601.5000      	16625.1039    	1714.54541    
602.0000      	16611.2957    	1718.81824    
602.5000      	16597.5104    	1755.36365    
603.0000      	16583.7479    	1769.18176    
603.5000      	16570.0083    	1727.18176    
604.0000      	16556.2914    	1744.09094    
604.5000      	16542.5972    	1923.54541    
605.0000      	16528.9256    	1954.27271    
605.5000      	16515.2766    	1865.72729    
606.0000      	16501.6502    	1853.36365    
606.5000      	16488.0462    	1900.18176    
607.0000      	16474.4646    	1910.18176    
607.5000      	16460.9053    	2031.18176    
608.0000      	16447.3684    	2114.27271    
608.5000      	16433.8537    	2014.36365    
609.0000      	16420.3612    	2120.36353    
609.5000      	16406.8909    	2021.63635    
610.0000      	16393.4426    	2131.18188    
610.5000      	16380.0164    	2258.36353    
611.0000      	16366.6121    	2164.90918    
611.5000      	16353.2298    	2216.09082    
612.0000      	16339.8693    	2236.18188    
612.5000      	16326.5306    	2359.18188    
613.0000      	16313.2137    	2347.81812    
613.5000      	16299.9185    	2509.54541    
614.0000      	16286.6450    	2476.81812    
614.5000      	16273.3930    	2569.36353    
615.0000      	16260.1626    	2628.00000    
615.5000      	16246.9537    	2641.18188    
616.0000      	16233.7662    	2764.18188    
616.5000      	16220.6002    	2842.81812    
617.0000      	16207.4554    	3010.81812    
617.5000      	16194.3320    	2988.90918    
618.0000      	16181.2298    	3026.90918    
618.5000      	16168.1487    	3278.18188    
619.0000      	16155.0889    	3354.45459    
619.5000      	16142.0500    	3327.72729    
620.0000      	16129.0323    	3460.90918    
620.5000      	16116.0355    	3614.72729    
621.0000      	16103.0596    	3610.27271    
621.5000      	16090.1046    	3650.27271    
622.0000      	16077.1704    	3761.54541    
622.5000      	16064.2570    	3951.81812    
623.0000      	16051.3644    	4007.09082    
623.5000      	16038.4924    	4082.90918    
624.0000      	16025.6410    	4238.18164    
624.5000      	16012.8102    	4498.63623    
625.0000      	16000.0000    	4578.54541    
625.5000      	15987.2102    	4715.63623    
626.0000      	15974.4409    	4866.09082    
626.5000      	15961.6919    	5049.09082    
627.0000      	15948.9633    	5395.72705    
627.5000      	15936.2550    	5834.63623    
628.0000      	15923.5669    	6047.81836    
628.5000      	15910.8990    	6277.09082    
629.0000      	15898.2512    	6831.72705    
629.5000      	15885.6235    	7345.81836    
630.0000      	15873.0159    	7605.36377    
630.5000      	15860.4282    	8230.54590    
631.0000      	15847.8605    	8875.81836    
631.5000      	15835.3127    	9486.27246    
632.0000      	15822.7848    	9874.45410    
632.5000      	15810.2767    	10575.54590   
633.0000      	15797.7883    	11291.63672   
633.5000      	15785.3197    	11993.90918   
634.0000      	15772.8707    	12556.54590   
634.5000      	15760.4413    	13250.18164   
635.0000      	15748.0315    	14147.54590   
635.5000      	15735.6412    	14791.72754   
636.0000      	15723.2704    	15605.45410   
636.5000      	15710.9191    	15841.63672   
637.0000      	15698.5871    	16958.00000   
637.5000      	15686.2745    	17943.36328   
638.0000      	15673.9812    	18615.72656   
638.5000      	15661.7071    	18932.09180   
639.0000      	15649.4523    	19651.90820   
639.5000      	15637.2166    	20194.90820   
640.0000      	15625.0000    	20475.36328   
640.5000      	15612.8025    	20559.90820   
641.0000      	15600.6240    	20513.18164   
641.5000      	15588.4645    	20182.36328   
642.0000      	15576.3240    	19399.09180   
642.5000      	15564.2023    	19014.36328   
643.0000      	15552.0995    	17624.36328   
643.5000      	15540.0155    	16199.45410   
644.0000      	15527.9503    	14803.81836   
644.5000      	15515.9038    	14049.45410   
645.0000      	15503.8760    	12508.09082   
645.5000      	15491.8668    	11141.27246   
646.0000      	15479.8762    	9832.81836    
646.5000      	15467.9041    	9280.54590    
647.0000      	15455.9505    	8187.63623    
647.5000      	15444.0154    	7500.27295    
648.0000      	15432.0988    	6690.54541    
648.5000      	15420.2005    	6426.36377    
649.0000      	15408.3205    	5791.18164    
649.5000      	15396.4588    	5347.63623    
650.0000      	15384.6154    	4876.36377    
650.5000      	15372.7902    	4669.72705    
651.0000      	15360.9831    	4353.90918    
651.5000      	15349.1942    	3997.81812    
652.0000      	15337.4233    	3863.63647    
652.5000      	15325.6705    	3627.72729    
653.0000      	15313.9357    	3376.54541    
653.5000      	15302.2188    	3180.27271    
654.0000      	15290.5199    	2974.63647    
654.5000      	15278.8388    	2850.54541    
655.0000      	15267.1756    	2661.45459    
655.5000      	15255.5301    	2579.36353    
656.0000      	15243.9024    	2429.90918    
656.5000      	15232.2925    	2365.36353    
657.0000      	15220.7002    	2190.27271    
657.5000      	15209.1255    	2269.36353    
658.0000      	15197.5684    	2046.45459    
658.5000      	15186.0289    	1981.72729    
659.0000      	15174.5068    	1865.63635    
659.5000      	15163.0023    	1920.54541    
660.0000      	15151.5152    	1788.72729    
660.5000      	15140.0454    	1776.18176    
661.0000      	15128.5930    	1833.00000    
661.5000      	15117.1580    	1812.90906    
662.0000      	15105.7402    	1728.72729    
662.5000      	15094.3396    	1747.81824    
663.0000      	15082.9563    	1639.27271    
663.5000      	15071.5901    	1614.18176    
664.0000      	15060.2410    	1569.09094    
664.5000      	15048.9090    	1518.18176    
665.0000      	15037.5940    	1578.81824    
665.5000      	15026.2960    	1574.63635    
666.0000      	15015.0150    	1551.72729    
666.5000      	15003.7509    	1543.27271    
667.0000      	14992.5037    	1550.27271    
667.5000      	14981.2734    	1589.27271    
668.0000      	14970.0599    	1558.90906    
668.5000      	14958.8631    	1479.72729    
669.0000      	14947.6831    	1490.81824    
669.5000      	14936.5198    	1460.63635    
670.0000      	14925.3731    	1481.27271    
670.5000      	14914.2431    	1527.90906    
671.0000      	14903.1297    	1541.72729    
671.5000      	14892.0328    	1468.63635    
672.0000      	14880.9524    	1459.18176    
672.5000      	14869.8885    	1443.18176    
673.0000      	14858.8410    	1469.63635    
673.5000      	14847.8099    	1462.63635    
674.0000      	14836.7953    	1504.45459    
674.5000      	14825.7969    	1628.09094    
675.0000      	14814.8148    	1557.63635    
675.5000      	14803.8490    	1479.63635    
676.0000      	14792.8994    	1487.36365    
676.5000      	14781.9660    	1517.09094    
677.0000      	14771.0487    	1592.36365    
677.5000      	14760.1476    	1474.81824    
678.0000      	14749.2625    	1507.72729    
678.5000      	14738.3935    	1527.09094    
679.0000      	14727.5405    	1630.36365    
679.5000      	14716.7035    	1509.36365    
680.0000      	14705.8824    	1487.09094    
680.5000      	14695.0771    	1426.36365    
681.0000      	14684.2878    	1462.36365    
681.5000      	14673.5143    	1518.54541    
682.0000      	14662.7566    	1486.54541    
682.5000      	14652.0147    	1567.54541    
683.0000      	14641.2884    	1475.81824    
683.5000      	14630.5779    	1510.09094    
684.0000      	14619.8830    	1458.18176    
684.5000      	14609.2038    	1512.63635    
685.0000      	14598.5401    	1454.18176    
685.5000      	14587.8920    	1388.72729    
686.0000      	14577.2595    	1460.18176    
686.5000      	14566.6424    	1454.81824    
687.0000      	14556.0408    	1441.36365    
687.5000      	14545.4545    	1390.72729    
688.0000      	14534.8837    	1546.63635    
688.5000      	14524.3282    	1630.63635    
689.0000      	14513.7881    	1440.18176    
689.5000      	14503.2632    	1434.27271    
690.0000      	14492.7536    	1594.18176    
690.5000      	14482.2592    	1411.45459    
691.0000      	14471.7800    	1489.27271    
691.5000      	14461.3160    	1444.36365    
692.0000      	14450.8671    	1477.09094    
692.5000      	14440.4332    	1642.45459    
693.0000      	14430.0144    	1533.27271    
693.5000      	14419.6107    	1474.36365    
694.0000      	14409.2219    	1578.18176    
694.5000      	14398.8481    	1478.63635    
695.0000      	14388.4892    	1448.63635    
695.5000      	14378.1452    	1442.18176    
696.0000      	14367.8161    	1407.18176    
696.5000      	14357.5018    	1511.27271    
697.0000      	14347.2023    	1468.63635    
697.5000      	14336.9176    	1490.36365    
698.0000      	14326.6476    	1515.00000    
698.5000      	14316.3923    	1494.72729    
699.0000      	14306.1516    	1502.36365    
699.5000      	14295.9257    	1497.18176    
700.0000      	14285.7143    	1502.09094    
700.5000      	14275.5175    	1511.00000    
701.0000      	14265.3352    	1612.09094    
701.5000      	14255.1675    	1435.00000    
702.0000      	14245.0142    	1479.45459    
702.5000      	14234.8754    	1463.27271    
703.0000      	14224.7511    	1442.18176    
703.5000      	14214.6411    	1421.72729    
704.0000      	14204.5455    	1377.81824    
704.5000      	14194.4642    	1485.36365    
705.0000      	14184.3972    	1503.54541    
705.5000      	14174.3444    	1486.63635    
706.0000      	14164.3059    	1561.09094    
706.5000      	14154.2817    	1526.27271    
707.0000      	14144.2716    	1520.18176    
707.5000      	14134.2756    	1450.00000    
708.0000      	14124.2938    	1440.18176    
708.5000      	14114.3260    	1435.45459    
709.0000      	14104.3724    	1500.72729    
709.5000      	14094.4327    	1610.54541    
710.0000      	14084.5070    	1463.36365    
710.5000      	14074.5954    	1497.00000    
711.0000      	14064.6976    	1549.90906    
711.5000      	14054.8138    	1542.36365    
712.0000      	14044.9438    	1512.00000    
712.5000      	14035.0877    	1517.00000    
713.0000      	14025.2454    	1495.36365    
713.5000      	14015.4170    	1563.90906    
714.0000      	14005.6022    	1527.00000    
714.5000      	13995.8013    	1584.81824    
715.0000      	13986.0140    	1424.36365    
715.5000      	13976.2404    	1485.00000    
716.0000      	13966.4804    	1499.63635    
716.5000      	13956.7341    	1504.72729    
717.0000      	13947.0014    	1485.27271    
717.5000      	13937.2822    	1449.00000    
718.0000      	13927.5766    	1510.54541    
718.5000      	13917.8845    	1481.00000    
719.0000      	13908.2058    	1458.18176    
719.5000      	13898.5407    	1482.09094    
720.0000      	13888.8889    	1547.36365    
720.5000      	13879.2505    	1508.00000    
721.0000      	13869.6255    	1451.81824    
721.5000      	13860.0139    	1472.81824    
722.0000      	13850.4155    	1477.81824    
722.5000      	13840.8304    	1352.63635    
723.0000      	13831.2586    	1431.54541    
723.5000      	13821.7001    	1419.63635    
724.0000      	13812.1547    	1368.81824    
724.5000      	13802.6225    	1395.00000    
725.0000      	13793.1034    	1497.90906    
725.5000      	13783.5975    	1482.81824    
726.0000      	13774.1047    	1432.27271    
726.5000      	13764.6249    	1469.45459    
727.0000      	13755.1582    	1434.18176    
727.5000      	13745.7045    	1449.72729    
728.0000      	13736.2637    	1510.00000    
728.5000      	13726.8360    	1470.45459    
729.0000      	13717.4211    	1506.00000    
729.5000      	13708.0192    	1487.81824    
730.0000      	13698.6301    	1499.36365    
730.5000      	13689.2539    	1499.27271    
731.0000      	13679.8906    	1515.18176    
731.5000      	13670.5400    	1473.54541    
732.0000      	13661.2022    	1436.09094    
732.5000      	13651.8771    	1540.27271    
733.0000      	13642.5648    	1475.54541    
733.5000      	13633.2652    	1547.45459    
734.0000      	13623.9782    	1544.45459    
734.5000      	13614.7039    	1468.00000    
735.0000      	13605.4422    	1523.45459    
735.5000      	13596.1931    	1456.45459    
736.0000      	13586.9565    	1475.27271    
736.5000      	13577.7325    	1532.81824    
737.0000      	13568.5210    	1523.18176    
737.5000      	13559.3220    	1457.63635    
738.0000      	13550.1355    	1480.09094    
738.5000      	13540.9614    	1439.45459    
739.0000      	13531.7997    	1409.27271    
739.5000      	13522.6504    	1423.27271    
740.0000      	13513.5135    	1432.63635    
740.5000      	13504.3889    	1377.63635    
741.0000      	13495.2767    	1460.45459    
741.5000      	13486.1767    	1560.36365    
742.0000      	13477.0889    	1599.00000    
742.5000      	13468.0135    	1424.63635    
743.0000      	13458.9502    	1443.18176    
743.5000      	13449.8991    	1465.81824    
744.0000      	13440.8602    	1458.90906    
744.5000      	13431.8334    	1527.27271    
745.0000      	13422.8188    	1479.00000    
745.5000      	13413.8162    	1406.27271    
746.0000      	13404.8257    	1419.27271    
746.5000      	13395.8473    	1463.09094    
747.0000      	13386.8809    	1401.63635    
747.5000      	13377.9264    	1482.72729    
748.0000      	13368.9840    	1432.09094    
748.5000      	13360.0534    	1472.54541    
749.0000      	13351.1348    	1457.90906    
749.5000      	13342.2282    	1430.54541    
750.0000      	13333.3333    	1429.18176    
750.5000      	13324.4504    	1468.45459    
751.0000      	13315.5792    	1494.54541    
751.5000      	13306.7199    	1534.63635    
752.0000      	13297.8723    	1554.27271    
752.5000      	13289.0365    	1580.00000    
753.0000      	13280.2125    	1586.81824    
753.5000      	13271.4001    	1550.90906    
754.0000      	13262.5995    	1484.45459    
754.5000      	13253.8105    	1561.27271    
755.0000      	13245.0331    	1495.00000    
755.5000      	13236.2674    	1473.45459    
756.0000      	13227.5132    	1497.45459    
756.5000      	13218.7707    	1522.27271    
757.0000      	13210.0396    	1472.72729    
757.5000      	13201.3201    	1461.00000    
758.0000      	13192.6121    	1506.72729    
758.5000      	13183.9156    	1510.63635    
759.0000      	13175.2306    	1559.90906    
759.5000      	13166.5569    	1462.00000    
760.0000      	13157.8947    	1485.81824    
760.5000      	13149.2439    	1571.45459    
761.0000      	13140.6045    	1413.18176    
761.5000      	13131.9764    	1550.54541    
762.0000      	13123.3596    	1483.18176    
762.5000      	13114.7541    	1470.36365    
763.0000      	13106.1599    	1459.27271    
763.5000      	13097.5769    	1503.27271    
764.0000      	13089.0052    	1483.00000    
764.5000      	13080.4447    	1392.36365    
765.0000      	13071.8954    	1435.36365    
765.5000      	13063.3573    	1492.81824    
766.0000      	13054.8303    	1508.09094    
766.5000      	13046.3144    	1520.90906    
767.0000      	13037.8096    	1470.54541    
767.5000      	13029.3160    	1383.09094    
768.0000      	13020.8333    	1470.36365    
768.5000      	13012.3617    	1544.36365    
769.0000      	13003.9012    	1515.00000    
769.5000      	12995.4516    	1514.54541    
770.0000      	12987.0130    	1500.63635    
770.5000      	12978.5853    	1475.54541    
771.0000      	12970.1686    	1554.63635    
771.5000      	12961.7628    	1609.27271    
772.0000      	12953.3679    	1476.00000    
772.5000      	12944.9838    	1463.81824    
773.0000      	12936.6106    	1469.18176    
773.5000      	12928.2482    	1490.36365    
774.0000      	12919.8966    	1523.36365    
774.5000      	12911.5558    	1466.00000    
775.0000      	12903.2258    	1486.81824    
775.5000      	12894.9065    	1503.00000    
776.0000      	12886.5979    	1475.54541    
776.5000      	12878.3001    	1468.90906    
777.0000      	12870.0129    	1475.63635    
777.5000      	12861.7363    	1420.45459    
778.0000      	12853.4704    	1460.09094    
778.5000      	12845.2152    	1567.09094    
779.0000      	12836.9705    	1512.09094    
779.5000      	12828.7364    	1542.54541    
780.0000      	12820.5128    	1429.09094    
780.5000      	12812.2998    	1424.72729    
781.0000      	12804.0973    	1471.45459    
781.5000      	12795.9053    	1522.81824    
782.0000      	12787.7238    	1518.81824    
782.5000      	12779.5527    	1449.45459    
783.0000      	12771.3921    	1417.54541    
783.5000      	12763.2419    	1466.00000    
784.0000      	12755.1020    	1438.09094    
784.5000      	12746.9726    	1549.90906    
785.0000      	12738.8535    	1456.72729    
785.5000      	12730.7447    	1441.09094    
786.0000      	12722.6463    	1441.18176    
786.5000      	12714.5582    	1457.63635    
787.0000      	12706.4803    	1572.36365    
787.5000      	12698.4127    	1482.54541    
788.0000      	12690.3553    	1589.90906    
788.5000      	12682.3082    	1485.81824    
789.0000      	12674.2712    	1538.81824    
789.5000      	12666.2445    	1503.00000    
790.0000      	12658.2278    	1464.09094    
790.5000      	12650.2214    	1469.27271    
791.0000      	12642.2250    	1444.00000    
791.5000      	12634.2388    	1463.18176    
792.0000      	12626.2626    	1524.90906    
792.5000      	12618.2965    	1487.54541    
793.0000      	12610.3405    	1456.18176    
793.5000      	12602.3945    	1426.27271    
794.0000      	12594.4584    	1523.72729    
794.5000      	12586.5324    	1519.27271    
795.0000      	12578.6164    	1523.72729    
795.5000      	12570.7102    	1511.63635    
796.0000      	12562.8141    	1436.00000    
796.5000      	12554.9278    	1457.00000    
797.0000      	12547.0514    	1514.72729    
797.5000      	12539.1850    	1507.54541    
798.0000      	12531.3283    	1487.54541    
798.5000      	12523.4815    	1443.00000    
799.0000      	12515.6446    	1420.09094    
799.5000      	12507.8174    	1500.90906    
800.0000      	12500.0000    	1556.45459    
