Unit Serial No : 240-LV0P465-EU
Integration Time : 240 ms
Time Average: 11
Binning Average: 0
FFT Smoothing: 0%
Project Name : Project Name
Sample Name : Sample Name
Measurement No : 1
Measurement Time : 09/18/2007   10:13:18

Wavelength(nm)	Wavenumber(1/cm)	Intensity(Counts)
350.0000      	28571.4286    	2954.54541    
350.5000      	28530.6705    	2869.45459    
351.0000      	28490.0285    	2803.18188    
351.5000      	28449.5021    	2898.90918    
352.0000      	28409.0909    	2760.18188    
352.5000      	28368.7943    	2773.09082    
353.0000      	28328.6119    	2589.54541    
353.5000      	28288.5431    	2812.72729    
354.0000      	28248.5876    	2423.36353    
354.5000      	28208.7447    	2443.18188    
355.0000      	28169.0141    	2627.00000    
355.5000      	28129.3952    	2678.27271    
356.0000      	28089.8876    	2226.90918    
356.5000      	28050.4909    	2539.72729    
357.0000      	28011.2045    	2431.90918    
357.5000      	27972.0280    	2550.90918    
358.0000      	27932.9609    	2609.00000    
358.5000      	27894.0028    	3213.27271    
359.0000      	27855.1532    	2574.27271    
359.5000      	27816.4117    	2745.09082    
360.0000      	27777.7778    	2577.27271    
360.5000      	27739.2510    	2665.45459    
361.0000      	27700.8310    	2611.54541    
361.5000      	27662.5173    	3041.63647    
362.0000      	27624.3094    	2697.63647    
362.5000      	27586.2069    	2884.90918    
363.0000      	27548.2094    	2935.36353    
363.5000      	27510.3164    	2515.54541    
364.0000      	27472.5275    	2230.09082    
364.5000      	27434.8422    	2400.27271    
365.0000      	27397.2603    	2523.81812    
365.5000      	27359.7811    	2784.36353    
366.0000      	27322.4044    	2821.27271    
366.5000      	27285.1296    	2666.72729    
367.0000      	27247.9564    	2636.54541    
367.5000      	27210.8844    	3066.45459    
368.0000      	27173.9130    	2604.90918    
368.5000      	27137.0421    	3084.45459    
369.0000      	27100.2710    	2628.81812    
369.5000      	27063.5995    	2607.27271    
370.0000      	27027.0270    	3033.00000    
370.5000      	26990.5533    	2337.63647    
371.0000      	26954.1779    	2745.81812    
371.5000      	26917.9004    	2464.36353    
372.0000      	26881.7204    	2527.45459    
372.5000      	26845.6376    	2756.00000    
373.0000      	26809.6515    	2499.36353    
373.5000      	26773.7617    	2775.63647    
374.0000      	26737.9679    	3129.36353    
374.5000      	26702.2697    	2661.54541    
375.0000      	26666.6667    	2520.18188    
375.5000      	26631.1585    	2663.72729    
376.0000      	26595.7447    	2633.81812    
376.5000      	26560.4250    	2439.81812    
377.0000      	26525.1989    	2687.63647    
377.5000      	26490.0662    	2695.90918    
378.0000      	26455.0265    	2586.90918    
378.5000      	26420.0793    	2647.36353    
379.0000      	26385.2243    	2610.54541    
379.5000      	26350.4611    	2652.45459    
380.0000      	26315.7895    	2544.09082    
380.5000      	26281.2089    	2610.45459    
381.0000      	26246.7192    	2621.18188    
381.5000      	26212.3198    	2434.27271    
382.0000      	26178.0105    	2674.18188    
382.5000      	26143.7908    	2800.18188    
383.0000      	26109.6606    	2867.54541    
383.5000      	26075.6193    	2560.00000    
384.0000      	26041.6667    	3118.18188    
384.5000      	26007.8023    	2554.54541    
385.0000      	25974.0260    	2569.45459    
385.5000      	25940.3372    	2532.72729    
386.0000      	25906.7358    	2363.36353    
386.5000      	25873.2212    	2647.09082    
387.0000      	25839.7933    	2672.90918    
387.5000      	25806.4516    	2521.72729    
388.0000      	25773.1959    	2792.18188    
388.5000      	25740.0257    	2657.36353    
389.0000      	25706.9409    	2606.18188    
389.5000      	25673.9409    	2736.18188    
390.0000      	25641.0256    	2608.72729    
390.5000      	25608.1946    	2565.18188    
391.0000      	25575.4476    	2665.00000    
391.5000      	25542.7842    	2980.54541    
392.0000      	25510.2041    	2518.81812    
392.5000      	25477.7070    	2468.81812    
393.0000      	25445.2926    	2760.36353    
393.5000      	25412.9606    	2419.72729    
394.0000      	25380.7107    	3019.18188    
394.5000      	25348.5425    	2460.36353    
395.0000      	25316.4557    	2762.27271    
395.5000      	25284.4501    	2649.27271    
396.0000      	25252.5253    	3030.45459    
396.5000      	25220.6810    	2650.54541    
397.0000      	25188.9169    	2840.09082    
397.5000      	25157.2327    	2793.63647    
398.0000      	25125.6281    	2704.09082    
398.5000      	25094.1029    	2476.18188    
399.0000      	25062.6566    	2754.90918    
399.5000      	25031.2891    	3002.18188    
400.0000      	25000.0000    	2868.90918    
400.5000      	24968.7890    	2584.09082    
401.0000      	24937.6559    	2532.18188    
401.5000      	24906.6002    	2787.90918    
402.0000      	24875.6219    	2805.36353    
402.5000      	24844.7205    	2727.81812    
403.0000      	24813.8958    	2333.45459    
403.5000      	24783.1475    	2610.81812    
404.0000      	24752.4752    	2660.54541    
404.5000      	24721.8789    	2955.90918    
405.0000      	24691.3580    	2709.45459    
405.5000      	24660.9125    	2604.63647    
406.0000      	24630.5419    	2529.54541    
406.5000      	24600.2460    	2467.00000    
407.0000      	24570.0246    	2744.72729    
407.5000      	24539.8773    	2466.54541    
408.0000      	24509.8039    	2393.81812    
408.5000      	24479.8042    	2469.90918    
409.0000      	24449.8778    	2396.72729    
409.5000      	24420.0244    	2674.00000    
410.0000      	24390.2439    	2665.90918    
410.5000      	24360.5359    	2813.45459    
411.0000      	24330.9002    	2781.36353    
411.5000      	24301.3366    	2781.63647    
412.0000      	24271.8447    	2907.18188    
412.5000      	24242.4242    	2517.09082    
413.0000      	24213.0751    	2808.63647    
413.5000      	24183.7969    	2687.09082    
414.0000      	24154.5894    	2598.27271    
414.5000      	24125.4524    	2510.54541    
415.0000      	24096.3855    	2354.00000    
415.5000      	24067.3887    	2406.36353    
416.0000      	24038.4615    	2770.63647    
416.5000      	24009.6038    	2762.45459    
417.0000      	23980.8153    	2534.72729    
417.5000      	23952.0958    	2505.81812    
418.0000      	23923.4450    	2811.63647    
418.5000      	23894.8626    	2650.36353    
419.0000      	23866.3484    	2651.00000    
419.5000      	23837.9023    	2449.00000    
420.0000      	23809.5238    	2614.72729    
420.5000      	23781.2128    	2619.72729    
421.0000      	23752.9691    	2565.00000    
421.5000      	23724.7924    	2515.45459    
422.0000      	23696.6825    	2731.63647    
422.5000      	23668.6391    	2625.81812    
423.0000      	23640.6619    	2755.18188    
423.5000      	23612.7509    	2458.00000    
424.0000      	23584.9057    	2707.27271    
424.5000      	23557.1260    	2878.18188    
425.0000      	23529.4118    	2483.45459    
425.5000      	23501.7626    	2306.54541    
426.0000      	23474.1784    	2554.27271    
426.5000      	23446.6589    	2534.09082    
427.0000      	23419.2037    	2632.09082    
427.5000      	23391.8129    	2612.36353    
428.0000      	23364.4860    	2498.54541    
428.5000      	23337.2229    	2602.36353    
429.0000      	23310.0233    	3167.90918    
429.5000      	23282.8871    	2821.27271    
430.0000      	23255.8140    	2663.09082    
430.5000      	23228.8037    	2659.00000    
431.0000      	23201.8561    	3062.90918    
431.5000      	23174.9710    	2577.27271    
432.0000      	23148.1481    	2418.18188    
432.5000      	23121.3873    	2647.90918    
433.0000      	23094.6882    	2341.72729    
433.5000      	23068.0507    	2648.45459    
434.0000      	23041.4747    	3057.54541    
434.5000      	23014.9597    	2585.90918    
435.0000      	22988.5057    	2600.54541    
435.5000      	22962.1125    	3054.72729    
436.0000      	22935.7798    	2860.81812    
436.5000      	22909.5074    	2608.36353    
437.0000      	22883.2952    	2585.45459    
437.5000      	22857.1429    	2689.18188    
438.0000      	22831.0502    	2598.18188    
438.5000      	22805.0171    	2477.72729    
439.0000      	22779.0433    	2525.54541    
439.5000      	22753.1286    	2437.81812    
440.0000      	22727.2727    	3281.18188    
440.5000      	22701.4756    	3042.27271    
441.0000      	22675.7370    	3477.18188    
441.5000      	22650.0566    	2727.63647    
442.0000      	22624.4344    	2729.63647    
442.5000      	22598.8701    	3335.54541    
443.0000      	22573.3634    	3108.18188    
443.5000      	22547.9143    	3117.81812    
444.0000      	22522.5225    	3122.81812    
444.5000      	22497.1879    	3175.63647    
445.0000      	22471.9101    	3300.45459    
445.5000      	22446.6891    	2679.18188    
446.0000      	22421.5247    	2884.18188    
446.5000      	22396.4166    	3348.72729    
447.0000      	22371.3647    	3182.72729    
447.5000      	22346.3687    	3359.72729    
448.0000      	22321.4286    	3400.63647    
448.5000      	22296.5440    	3163.81812    
449.0000      	22271.7149    	3529.90918    
449.5000      	22246.9410    	4000.27271    
450.0000      	22222.2222    	3629.09082    
450.5000      	22197.5583    	3871.18188    
451.0000      	22172.9490    	3936.00000    
451.5000      	22148.3942    	3928.09082    
452.0000      	22123.8938    	3800.45459    
452.5000      	22099.4475    	3809.00000    
453.0000      	22075.0552    	4024.54541    
453.5000      	22050.7166    	4016.54541    
454.0000      	22026.4317    	4009.09082    
454.5000      	22002.2002    	4108.36377    
455.0000      	21978.0220    	4423.00000    
455.5000      	21953.8968    	4617.54541    
456.0000      	21929.8246    	4789.00000    
456.5000      	21905.8050    	5052.00000    
457.0000      	21881.8381    	5452.90918    
457.5000      	21857.9235    	5436.54541    
458.0000      	21834.0611    	5507.45459    
458.5000      	21810.2508    	5246.72705    
459.0000      	21786.4924    	5824.27295    
459.5000      	21762.7856    	5356.27295    
460.0000      	21739.1304    	5659.90918    
460.5000      	21715.5266    	5922.54541    
461.0000      	21691.9740    	6262.90918    
461.5000      	21668.4724    	6774.36377    
462.0000      	21645.0216    	6974.63623    
462.5000      	21621.6216    	6808.36377    
463.0000      	21598.2721    	7048.27295    
463.5000      	21574.9730    	7133.63623    
464.0000      	21551.7241    	7142.09082    
464.5000      	21528.5253    	7720.54541    
465.0000      	21505.3763    	8143.72705    
465.5000      	21482.2771    	7853.54541    
466.0000      	21459.2275    	8645.18164    
466.5000      	21436.2272    	8071.27295    
467.0000      	21413.2762    	8449.00000    
467.5000      	21390.3743    	9067.36328    
468.0000      	21367.5214    	8835.81836    
468.5000      	21344.7172    	8871.27246    
469.0000      	21321.9616    	9704.81836    
469.5000      	21299.2545    	9401.72754    
470.0000      	21276.5957    	9250.36328    
470.5000      	21253.9851    	9883.63672    
471.0000      	21231.4225    	9712.72754    
471.5000      	21208.9077    	9154.09082    
472.0000      	21186.4407    	9202.00000    
472.5000      	21164.0212    	9604.18164    
473.0000      	21141.6490    	9775.90918    
473.5000      	21119.3242    	9388.90918    
474.0000      	21097.0464    	9933.00000    
474.5000      	21074.8156    	9636.81836    
475.0000      	21052.6316    	9228.09082    
475.5000      	21030.4942    	9684.00000    
476.0000      	21008.4034    	9419.36328    
476.5000      	20986.3589    	9451.00000    
477.0000      	20964.3606    	9615.00000    
477.5000      	20942.4084    	9681.27246    
478.0000      	20920.5021    	9800.72754    
478.5000      	20898.6416    	9520.54590    
479.0000      	20876.8267    	9293.00000    
479.5000      	20855.0574    	9232.09082    
480.0000      	20833.3333    	9163.27246    
480.5000      	20811.6545    	9035.63672    
481.0000      	20790.0208    	9082.54590    
481.5000      	20768.4320    	8554.90918    
482.0000      	20746.8880    	8567.27246    
482.5000      	20725.3886    	8842.54590    
483.0000      	20703.9337    	8410.36328    
483.5000      	20682.5233    	8361.81836    
484.0000      	20661.1570    	8118.45459    
484.5000      	20639.8349    	7841.81836    
485.0000      	20618.5567    	7803.27295    
485.5000      	20597.3223    	7819.45459    
486.0000      	20576.1317    	7665.81836    
486.5000      	20554.9846    	6896.45459    
487.0000      	20533.8809    	7035.90918    
487.5000      	20512.8205    	6985.00000    
488.0000      	20491.8033    	7480.63623    
488.5000      	20470.8291    	6715.18164    
489.0000      	20449.8978    	6580.27295    
489.5000      	20429.0092    	6815.00000    
490.0000      	20408.1633    	6701.45459    
490.5000      	20387.3598    	6438.63623    
491.0000      	20366.5988    	6274.45459    
491.5000      	20345.8800    	6494.27295    
492.0000      	20325.2033    	6076.63623    
492.5000      	20304.5685    	5891.72705    
493.0000      	20283.9757    	6259.18164    
493.5000      	20263.4245    	5514.36377    
494.0000      	20242.9150    	5688.81836    
494.5000      	20222.4469    	5574.81836    
495.0000      	20202.0202    	5372.36377    
495.5000      	20181.6347    	5068.00000    
496.0000      	20161.2903    	5244.90918    
496.5000      	20140.9869    	5113.72705    
497.0000      	20120.7243    	4916.36377    
497.5000      	20100.5025    	5208.45459    
498.0000      	20080.3213    	4628.09082    
498.5000      	20060.1805    	4497.36377    
499.0000      	20040.0802    	5081.63623    
499.5000      	20020.0200    	4676.36377    
500.0000      	20000.0000    	4322.27295    
500.5000      	19980.0200    	4393.18164    
501.0000      	19960.0798    	4480.45459    
501.5000      	19940.1795    	4145.63623    
502.0000      	19920.3187    	4303.00000    
502.5000      	19900.4975    	4023.09082    
503.0000      	19880.7157    	3771.72729    
503.5000      	19860.9732    	4004.81812    
504.0000      	19841.2698    	3842.27271    
504.5000      	19821.6056    	4133.27295    
505.0000      	19801.9802    	3899.27271    
505.5000      	19782.3937    	3732.81812    
506.0000      	19762.8458    	3735.72729    
506.5000      	19743.3366    	3415.18188    
507.0000      	19723.8659    	3664.27271    
507.5000      	19704.4335    	3823.18188    
508.0000      	19685.0394    	3864.81812    
508.5000      	19665.6834    	3316.27271    
509.0000      	19646.3654    	3503.27271    
509.5000      	19627.0854    	3892.63647    
510.0000      	19607.8431    	4103.54541    
510.5000      	19588.6386    	3436.54541    
511.0000      	19569.4716    	3301.18188    
511.5000      	19550.3421    	3602.00000    
512.0000      	19531.2500    	3728.81812    
512.5000      	19512.1951    	3021.36353    
513.0000      	19493.1774    	3060.00000    
513.5000      	19474.1967    	3048.09082    
514.0000      	19455.2529    	3238.36353    
514.5000      	19436.3460    	3067.36353    
515.0000      	19417.4757    	2980.63647    
515.5000      	19398.6421    	3361.90918    
516.0000      	19379.8450    	2903.00000    
516.5000      	19361.0842    	3057.54541    
517.0000      	19342.3598    	2860.18188    
517.5000      	19323.6715    	3149.45459    
518.0000      	19305.0193    	2850.63647    
518.5000      	19286.4031    	2727.18188    
519.0000      	19267.8227    	2613.54541    
519.5000      	19249.2782    	2852.18188    
520.0000      	19230.7692    	2860.00000    
520.5000      	19212.2959    	2879.72729    
521.0000      	19193.8580    	2929.72729    
521.5000      	19175.4554    	2743.54541    
522.0000      	19157.0881    	2903.54541    
522.5000      	19138.7560    	2920.00000    
523.0000      	19120.4589    	2957.00000    
523.5000      	19102.1968    	2758.00000    
524.0000      	19083.9695    	2775.45459    
524.5000      	19065.7769    	2716.72729    
525.0000      	19047.6190    	2861.63647    
525.5000      	19029.4957    	2517.54541    
526.0000      	19011.4068    	2517.81812    
526.5000      	18993.3523    	3170.72729    
527.0000      	18975.3321    	2588.72729    
527.5000      	18957.3460    	2262.63647    
528.0000      	18939.3939    	2698.54541    
528.5000      	18921.4759    	2913.54541    
529.0000      	18903.5917    	2638.09082    
529.5000      	18885.7413    	2710.63647    
530.0000      	18867.9245    	2605.00000    
530.5000      	18850.1414    	2446.81812    
531.0000      	18832.3917    	2785.63647    
531.5000      	18814.6754    	2675.54541    
532.0000      	18796.9925    	2779.18188    
532.5000      	18779.3427    	2608.00000    
533.0000      	18761.7261    	2614.90918    
533.5000      	18744.1425    	2482.81812    
534.0000      	18726.5918    	2699.63647    
534.5000      	18709.0739    	2501.36353    
535.0000      	18691.5888    	2910.09082    
535.5000      	18674.1363    	2519.27271    
536.0000      	18656.7164    	2800.00000    
536.5000      	18639.3290    	2529.45459    
537.0000      	18621.9739    	2579.54541    
537.5000      	18604.6512    	2596.45459    
538.0000      	18587.3606    	2547.54541    
538.5000      	18570.1021    	2493.90918    
539.0000      	18552.8757    	2556.36353    
539.5000      	18535.6812    	2704.00000    
540.0000      	18518.5185    	2304.45459    
540.5000      	18501.3876    	2388.63647    
541.0000      	18484.2884    	2672.18188    
541.5000      	18467.2207    	2548.45459    
542.0000      	18450.1845    	2777.54541    
542.5000      	18433.1797    	2329.00000    
543.0000      	18416.2063    	2640.18188    
543.5000      	18399.2640    	2666.72729    
544.0000      	18382.3529    	2456.90918    
544.5000      	18365.4729    	2404.00000    
545.0000      	18348.6239    	2804.54541    
545.5000      	18331.8057    	2578.00000    
546.0000      	18315.0183    	2901.09082    
546.5000      	18298.2617    	2481.90918    
547.0000      	18281.5356    	2516.00000    
547.5000      	18264.8402    	2580.72729    
548.0000      	18248.1752    	2606.36353    
548.5000      	18231.5406    	2383.90918    
549.0000      	18214.9362    	2681.81812    
549.5000      	18198.3621    	2753.63647    
550.0000      	18181.8182    	2528.18188    
550.5000      	18165.3043    	2663.72729    
551.0000      	18148.8203    	2279.90918    
551.5000      	18132.3663    	2551.54541    
552.0000      	18115.9420    	2375.18188    
552.5000      	18099.5475    	2455.18188    
553.0000      	18083.1826    	2281.54541    
553.5000      	18066.8473    	3117.63647    
554.0000      	18050.5415    	2774.00000    
554.5000      	18034.2651    	2586.90918    
555.0000      	18018.0180    	2362.27271    
555.5000      	18001.8002    	2417.72729    
556.0000      	17985.6115    	2329.81812    
556.5000      	17969.4519    	2286.09082    
557.0000      	17953.3214    	2435.09082    
557.5000      	17937.2197    	2479.72729    
558.0000      	17921.1470    	2534.36353    
558.5000      	17905.1030    	2451.90918    
559.0000      	17889.0877    	2555.90918    
559.5000      	17873.1010    	3008.81812    
560.0000      	17857.1429    	2775.54541    
560.5000      	17841.2132    	2481.36353    
561.0000      	17825.3119    	2766.45459    
561.5000      	17809.4390    	2235.72729    
562.0000      	17793.5943    	2714.54541    
562.5000      	17777.7778    	2730.09082    
563.0000      	17761.9893    	2543.81812    
563.5000      	17746.2289    	2272.63647    
564.0000      	17730.4965    	2712.09082    
564.5000      	17714.7919    	2629.63647    
565.0000      	17699.1150    	2319.45459    
565.5000      	17683.4660    	2237.63647    
566.0000      	17667.8445    	2781.63647    
566.5000      	17652.2507    	2395.36353    
567.0000      	17636.6843    	2370.54541    
567.5000      	17621.1454    	2433.45459    
568.0000      	17605.6338    	2531.45459    
568.5000      	17590.1495    	2424.54541    
569.0000      	17574.6924    	2559.90918    
569.5000      	17559.2625    	2513.81812    
570.0000      	17543.8596    	2388.00000    
570.5000      	17528.4838    	2237.09082    
571.0000      	17513.1349    	2536.81812    
571.5000      	17497.8128    	2740.90918    
572.0000      	17482.5175    	2413.09082    
572.5000      	17467.2489    	2903.54541    
573.0000      	17452.0070    	2239.18188    
573.5000      	17436.7916    	2568.18188    
574.0000      	17421.6028    	2399.00000    
574.5000      	17406.4404    	2383.72729    
575.0000      	17391.3043    	2526.72729    
575.5000      	17376.1946    	2460.00000    
576.0000      	17361.1111    	2569.00000    
576.5000      	17346.0538    	2358.36353    
577.0000      	17331.0225    	2336.18188    
577.5000      	17316.0173    	2256.63647    
578.0000      	17301.0381    	2569.18188    
578.5000      	17286.0847    	2448.90918    
579.0000      	17271.1572    	2665.27271    
579.5000      	17256.2554    	2457.54541    
580.0000      	17241.3793    	3502.09082    
580.5000      	17226.5289    	2826.72729    
581.0000      	17211.7040    	2646.45459    
581.5000      	17196.9046    	2244.54541    
582.0000      	17182.1306    	2489.90918    
582.5000      	17167.3820    	2615.27271    
583.0000      	17152.6587    	2425.27271    
583.5000      	17137.9606    	2789.45459    
584.0000      	17123.2877    	2373.45459    
584.5000      	17108.6399    	2186.36353    
585.0000      	17094.0171    	2330.27271    
585.5000      	17079.4193    	2110.90918    
586.0000      	17064.8464    	2442.27271    
586.5000      	17050.2984    	2392.72729    
587.0000      	17035.7751    	2475.45459    
587.5000      	17021.2766    	2473.90918    
588.0000      	17006.8027    	2624.09082    
588.5000      	16992.3534    	2607.18188    
589.0000      	16977.9287    	2687.27271    
589.5000      	16963.5284    	2617.81812    
590.0000      	16949.1525    	3043.27271    
590.5000      	16934.8010    	2630.63647    
591.0000      	16920.4738    	2528.90918    
591.5000      	16906.1708    	2762.54541    
592.0000      	16891.8919    	2466.81812    
592.5000      	16877.6371    	2665.90918    
593.0000      	16863.4064    	2441.72729    
593.5000      	16849.1997    	2524.27271    
594.0000      	16835.0168    	2241.63647    
594.5000      	16820.8579    	3078.09082    
595.0000      	16806.7227    	2470.00000    
595.5000      	16792.6113    	2275.90918    
596.0000      	16778.5235    	2893.18188    
596.5000      	16764.4593    	2671.45459    
597.0000      	16750.4188    	2385.36353    
597.5000      	16736.4017    	2324.45459    
598.0000      	16722.4080    	2758.00000    
598.5000      	16708.4378    	2796.27271    
599.0000      	16694.4908    	2873.81812    
599.5000      	16680.5671    	2531.36353    
600.0000      	16666.6667    	2595.63647    
600.5000      	16652.7893    	2646.27271    
601.0000      	16638.9351    	2814.90918    
601.5000      	16625.1039    	2439.36353    
602.0000      	16611.2957    	2366.72729    
602.5000      	16597.5104    	2397.72729    
603.0000      	16583.7479    	2394.45459    
603.5000      	16570.0083    	2252.54541    
604.0000      	16556.2914    	2323.81812    
604.5000      	16542.5972    	2849.72729    
605.0000      	16528.9256    	2947.18188    
605.5000      	16515.2766    	2506.09082    
606.0000      	16501.6502    	2372.54541    
606.5000      	16488.0462    	2479.27271    
607.0000      	16474.4646    	2391.72729    
607.5000      	16460.9053    	2790.36353    
608.0000      	16447.3684    	3049.81812    
608.5000      	16433.8537    	2585.27271    
609.0000      	16420.3612    	2881.18188    
609.5000      	16406.8909    	2416.54541    
610.0000      	16393.4426    	2686.72729    
610.5000      	16380.0164    	2998.09082    
611.0000      	16366.6121    	2290.00000    
611.5000      	16353.2298    	2525.27271    
612.0000      	16339.8693    	2492.90918    
612.5000      	16326.5306    	2785.81812    
613.0000      	16313.2137    	2357.81812    
613.5000      	16299.9185    	2879.81812    
614.0000      	16286.6450    	2501.90918    
614.5000      	16273.3930    	2572.63647    
615.0000      	16260.1626    	2422.18188    
615.5000      	16246.9537    	2333.45459    
616.0000      	16233.7662    	2509.72729    
616.5000      	16220.6002    	2295.81812    
617.0000      	16207.4554    	2635.18188    
617.5000      	16194.3320    	2435.72729    
618.0000      	16181.2298    	2155.27271    
618.5000      	16168.1487    	2630.90918    
619.0000      	16155.0889    	2579.09082    
619.5000      	16142.0500    	2395.72729    
620.0000      	16129.0323    	2539.27271    
620.5000      	16116.0355    	2820.45459    
621.0000      	16103.0596    	2463.18188    
621.5000      	16090.1046    	2155.63647    
622.0000      	16077.1704    	2361.45459    
622.5000      	16064.2570    	2790.90918    
623.0000      	16051.3644    	2474.54541    
623.5000      	16038.4924    	2367.72729    
624.0000      	16025.6410    	2542.90918    
624.5000      	16012.8102    	3029.81812    
625.0000      	16000.0000    	2630.54541    
625.5000      	15987.2102    	2408.54541    
626.0000      	15974.4409    	2603.18188    
626.5000      	15961.6919    	2429.36353    
627.0000      	15948.9633    	2568.00000    
627.5000      	15936.2550    	2661.72729    
628.0000      	15923.5669    	2721.27271    
628.5000      	15910.8990    	2262.54541    
629.0000      	15898.2512    	2576.54541    
629.5000      	15885.6235    	2318.09082    
630.0000      	15873.0159    	2278.00000    
630.5000      	15860.4282    	2457.81812    
631.0000      	15847.8605    	2492.36353    
631.5000      	15835.3127    	2314.90918    
632.0000      	15822.7848    	2530.36353    
632.5000      	15810.2767    	2593.54541    
633.0000      	15797.7883    	2366.54541    
633.5000      	15785.3197    	2173.90918    
634.0000      	15772.8707    	2819.63647    
634.5000      	15760.4413    	2632.36353    
635.0000      	15748.0315    	2445.27271    
635.5000      	15735.6412    	2815.36353    
636.0000      	15723.2704    	2699.54541    
636.5000      	15710.9191    	2471.18188    
637.0000      	15698.5871    	2887.54541    
637.5000      	15686.2745    	2729.81812    
638.0000      	15673.9812    	2546.90918    
638.5000      	15661.7071    	2415.18188    
639.0000      	15649.4523    	2777.09082    
639.5000      	15637.2166    	2646.00000    
640.0000      	15625.0000    	2863.54541    
640.5000      	15612.8025    	2755.36353    
641.0000      	15600.6240    	2545.27271    
641.5000      	15588.4645    	2683.72729    
642.0000      	15576.3240    	2186.45459    
642.5000      	15564.2023    	2724.00000    
643.0000      	15552.0995    	2171.90918    
643.5000      	15540.0155    	2201.72729    
644.0000      	15527.9503    	2468.09082    
644.5000      	15515.9038    	2625.54541    
645.0000      	15503.8760    	2361.72729    
645.5000      	15491.8668    	2613.09082    
646.0000      	15479.8762    	2361.63647    
646.5000      	15467.9041    	2497.27271    
647.0000      	15455.9505    	2320.45459    
647.5000      	15444.0154    	2614.81812    
648.0000      	15432.0988    	2597.18188    
648.5000      	15420.2005    	2798.18188    
649.0000      	15408.3205    	2536.00000    
649.5000      	15396.4588    	2703.81812    
650.0000      	15384.6154    	2478.81812    
650.5000      	15372.7902    	2378.09082    
651.0000      	15360.9831    	2403.72729    
651.5000      	15349.1942    	2270.81812    
652.0000      	15337.4233    	2796.81812    
652.5000      	15325.6705    	2379.90918    
653.0000      	15313.9357    	2298.00000    
653.5000      	15302.2188    	2465.90918    
654.0000      	15290.5199    	2403.63647    
654.5000      	15278.8388    	2228.90918    
655.0000      	15267.1756    	2171.27271    
655.5000      	15255.5301    	2463.90918    
656.0000      	15243.9024    	2468.36353    
656.5000      	15232.2925    	2369.00000    
657.0000      	15220.7002    	2265.63647    
657.5000      	15209.1255    	3006.09082    
658.0000      	15197.5684    	2585.54541    
658.5000      	15186.0289    	2384.45459    
659.0000      	15174.5068    	2198.72729    
659.5000      	15163.0023    	2642.72729    
660.0000      	15151.5152    	2315.90918    
660.5000      	15140.0454    	2423.36353    
661.0000      	15128.5930    	2762.72729    
661.5000      	15117.1580    	2843.27271    
662.0000      	15105.7402    	2611.45459    
662.5000      	15094.3396    	2815.18188    
663.0000      	15082.9563    	2574.27271    
663.5000      	15071.5901    	2596.63647    
664.0000      	15060.2410    	2468.63647    
664.5000      	15048.9090    	2329.27271    
665.0000      	15037.5940    	2568.27271    
665.5000      	15026.2960    	2563.72729    
666.0000      	15015.0150    	2532.45459    
666.5000      	15003.7509    	2524.45459    
667.0000      	14992.5037    	2564.09082    
667.5000      	14981.2734    	2741.36353    
668.0000      	14970.0599    	2639.27271    
668.5000      	14958.8631    	2324.54541    
669.0000      	14947.6831    	2403.81812    
669.5000      	14936.5198    	2332.36353    
670.0000      	14925.3731    	2386.09082    
670.5000      	14914.2431    	2617.90918    
671.0000      	14903.1297    	2693.63647    
671.5000      	14892.0328    	2434.18188    
672.0000      	14880.9524    	2411.72729    
672.5000      	14869.8885    	2382.90918    
673.0000      	14858.8410    	2484.63647    
673.5000      	14847.8099    	2442.18188    
674.0000      	14836.7953    	2559.54541    
674.5000      	14825.7969    	3034.63647    
675.0000      	14814.8148    	2813.27271    
675.5000      	14803.8490    	2547.45459    
676.0000      	14792.8994    	2595.27271    
676.5000      	14781.9660    	2750.81812    
677.0000      	14771.0487    	2992.72729    
677.5000      	14760.1476    	2530.36353    
678.0000      	14749.2625    	2634.45459    
678.5000      	14738.3935    	2687.18188    
679.0000      	14727.5405    	3132.36353    
679.5000      	14716.7035    	2704.09082    
680.0000      	14705.8824    	2596.18188    
680.5000      	14695.0771    	2331.54541    
681.0000      	14684.2878    	2415.00000    
681.5000      	14673.5143    	2716.45459    
682.0000      	14662.7566    	2594.90918    
682.5000      	14652.0147    	2790.27271    
683.0000      	14641.2884    	2482.18188    
683.5000      	14630.5779    	2574.54541    
684.0000      	14619.8830    	2428.45459    
684.5000      	14609.2038    	2658.90918    
685.0000      	14598.5401    	2529.09082    
685.5000      	14587.8920    	2227.27271    
686.0000      	14577.2595    	2464.54541    
686.5000      	14566.6424    	2319.54541    
687.0000      	14556.0408    	2313.36353    
687.5000      	14545.4545    	2174.90918    
688.0000      	14534.8837    	2817.72729    
688.5000      	14524.3282    	3216.63647    
689.0000      	14513.7881    	2384.45459    
689.5000      	14503.2632    	2359.81812    
690.0000      	14492.7536    	2939.63647    
690.5000      	14482.2592    	2297.54541    
691.0000      	14471.7800    	2652.18188    
691.5000      	14461.3160    	2483.54541    
692.0000      	14450.8671    	2560.00000    
692.5000      	14440.4332    	3189.18188    
693.0000      	14430.0144    	2694.18188    
693.5000      	14419.6107    	2482.81812    
694.0000      	14409.2219    	2978.63647    
694.5000      	14398.8481    	2595.90918    
695.0000      	14388.4892    	2527.63647    
695.5000      	14378.1452    	2504.81812    
696.0000      	14367.8161    	2279.90918    
696.5000      	14357.5018    	2731.18188    
697.0000      	14347.2023    	2520.18188    
697.5000      	14336.9176    	2570.09082    
698.0000      	14326.6476    	2801.45459    
698.5000      	14316.3923    	2695.90918    
699.0000      	14306.1516    	2665.18188    
699.5000      	14295.9257    	2552.54541    
700.0000      	14285.7143    	2504.90918    
700.5000      	14275.5175    	2733.90918    
701.0000      	14265.3352    	3127.90918    
701.5000      	14255.1675    	2450.00000    
702.0000      	14245.0142    	2545.54541    
702.5000      	14234.8754    	2455.00000    
703.0000      	14224.7511    	2396.18188    
703.5000      	14214.6411    	2368.09082    
704.0000      	14204.5455    	2156.36353    
704.5000      	14194.4642    	2614.63647    
705.0000      	14184.3972    	2624.09082    
705.5000      	14174.3444    	2527.27271    
706.0000      	14164.3059    	2770.18188    
706.5000      	14154.2817    	2772.72729    
707.0000      	14144.2716    	2674.90918    
707.5000      	14134.2756    	2476.09082    
708.0000      	14124.2938    	2410.27271    
708.5000      	14114.3260    	2386.90918    
709.0000      	14104.3724    	2687.72729    
709.5000      	14094.4327    	3116.45459    
710.0000      	14084.5070    	2552.00000    
710.5000      	14074.5954    	2589.36353    
711.0000      	14064.6976    	2734.81812    
711.5000      	14054.8138    	2758.54541    
712.0000      	14044.9438    	2653.27271    
712.5000      	14035.0877    	2671.54541    
713.0000      	14025.2454    	2579.00000    
713.5000      	14015.4170    	2969.54541    
714.0000      	14005.6022    	2764.90918    
714.5000      	13995.8013    	2997.00000    
715.0000      	13986.0140    	2349.27271    
715.5000      	13976.2404    	2510.18188    
716.0000      	13966.4804    	2625.81812    
716.5000      	13956.7341    	2608.72729    
717.0000      	13947.0014    	2623.63647    
717.5000      	13937.2822    	2480.54541    
718.0000      	13927.5766    	2621.18188    
718.5000      	13917.8845    	2633.36353    
719.0000      	13908.2058    	2503.81812    
719.5000      	13898.5407    	2654.36353    
720.0000      	13888.8889    	2874.27271    
720.5000      	13879.2505    	2656.63647    
721.0000      	13869.6255    	2499.81812    
721.5000      	13860.0139    	2507.72729    
722.0000      	13850.4155    	2594.72729    
722.5000      	13840.8304    	2084.09082    
723.0000      	13831.2586    	2420.54541    
723.5000      	13821.7001    	2334.18188    
724.0000      	13812.1547    	2219.81812    
724.5000      	13802.6225    	2218.36353    
725.0000      	13793.1034    	2574.27271    
725.5000      	13783.5975    	2501.72729    
726.0000      	13774.1047    	2395.54541    
726.5000      	13764.6249    	2612.18188    
727.0000      	13755.1582    	2354.45459    
727.5000      	13745.7045    	2423.54541    
728.0000      	13736.2637    	2599.36353    
728.5000      	13726.8360    	2602.90918    
729.0000      	13717.4211    	2665.09082    
729.5000      	13708.0192    	2615.36353    
730.0000      	13698.6301    	2639.36353    
730.5000      	13689.2539    	2620.18188    
731.0000      	13679.8906    	2711.63647    
731.5000      	13670.5400    	2594.63647    
732.0000      	13661.2022    	2502.00000    
732.5000      	13651.8771    	2797.54541    
733.0000      	13642.5648    	2554.90918    
733.5000      	13633.2652    	2761.72729    
734.0000      	13623.9782    	2801.45459    
734.5000      	13614.7039    	2445.27271    
735.0000      	13605.4422    	2774.00000    
735.5000      	13596.1931    	2536.45459    
736.0000      	13586.9565    	2644.09082    
736.5000      	13577.7325    	2823.27271    
737.0000      	13568.5210    	2771.00000    
737.5000      	13559.3220    	2468.36353    
738.0000      	13550.1355    	2501.90918    
738.5000      	13540.9614    	2432.90918    
739.0000      	13531.7997    	2238.36353    
739.5000      	13522.6504    	2372.81812    
740.0000      	13513.5135    	2356.36353    
740.5000      	13504.3889    	2138.00000    
741.0000      	13495.2767    	2499.63647    
741.5000      	13486.1767    	2952.54541    
742.0000      	13477.0889    	3090.27271    
742.5000      	13468.0135    	2357.63647    
743.0000      	13458.9502    	2427.09082    
743.5000      	13449.8991    	2542.63647    
744.0000      	13440.8602    	2498.81812    
744.5000      	13431.8334    	2706.81812    
745.0000      	13422.8188    	2557.81812    
745.5000      	13413.8162    	2251.72729    
746.0000      	13404.8257    	2276.54541    
746.5000      	13395.8473    	2575.27271    
747.0000      	13386.8809    	2342.72729    
747.5000      	13377.9264    	2640.81812    
748.0000      	13368.9840    	2394.09082    
748.5000      	13360.0534    	2498.09082    
749.0000      	13351.1348    	2379.54541    
749.5000      	13342.2282    	2330.90918    
750.0000      	13333.3333    	2355.09082    
750.5000      	13324.4504    	2541.72729    
751.0000      	13315.5792    	2697.72729    
751.5000      	13306.7199    	2802.45459    
752.0000      	13297.8723    	2901.09082    
752.5000      	13289.0365    	2972.18188    
753.0000      	13280.2125    	3119.36353    
753.5000      	13271.4001    	2773.27271    
754.0000      	13262.5995    	2580.27271    
754.5000      	13253.8105    	2800.81812    
755.0000      	13245.0331    	2641.54541    
755.5000      	13236.2674    	2501.45459    
756.0000      	13227.5132    	2624.90918    
756.5000      	13218.7707    	2774.18188    
757.0000      	13210.0396    	2579.54541    
757.5000      	13201.3201    	2540.36353    
758.0000      	13192.6121    	2681.54541    
758.5000      	13183.9156    	2724.00000    
759.0000      	13175.2306    	2963.90918    
759.5000      	13166.5569    	2428.09082    
760.0000      	13157.8947    	2570.81812    
760.5000      	13149.2439    	2990.00000    
761.0000      	13140.6045    	2345.09082    
761.5000      	13131.9764    	2880.18188    
762.0000      	13123.3596    	2624.63647    
762.5000      	13114.7541    	2536.54541    
763.0000      	13106.1599    	2515.90918    
763.5000      	13097.5769    	2683.90918    
764.0000      	13089.0052    	2594.81812    
764.5000      	13080.4447    	2252.54541    
765.0000      	13071.8954    	2394.90918    
765.5000      	13063.3573    	2586.45459    
766.0000      	13054.8303    	2685.36353    
766.5000      	13046.3144    	2774.18188    
767.0000      	13037.8096    	2572.54541    
767.5000      	13029.3160    	2178.18188    
768.0000      	13020.8333    	2584.90918    
768.5000      	13012.3617    	2804.27271    
769.0000      	13003.9012    	2693.45459    
769.5000      	12995.4516    	2701.45459    
770.0000      	12987.0130    	2657.18188    
770.5000      	12978.5853    	2547.36353    
771.0000      	12970.1686    	2765.27271    
771.5000      	12961.7628    	3105.36353    
772.0000      	12953.3679    	2557.18188    
772.5000      	12944.9838    	2516.90918    
773.0000      	12936.6106    	2594.18188    
773.5000      	12928.2482    	2653.54541    
774.0000      	12919.8966    	2711.45459    
774.5000      	12911.5558    	2494.63647    
775.0000      	12903.2258    	2615.00000    
775.5000      	12894.9065    	2603.18188    
776.0000      	12886.5979    	2616.18188    
776.5000      	12878.3001    	2504.36353    
777.0000      	12870.0129    	2537.63647    
777.5000      	12861.7363    	2306.36353    
778.0000      	12853.4704    	2486.63647    
778.5000      	12845.2152    	2930.00000    
779.0000      	12836.9705    	2790.00000    
779.5000      	12828.7364    	2832.09082    
780.0000      	12820.5128    	2391.63647    
780.5000      	12812.2998    	2336.90918    
781.0000      	12804.0973    	2466.00000    
781.5000      	12795.9053    	2769.09082    
782.0000      	12787.7238    	2678.72729    
782.5000      	12779.5527    	2459.81812    
783.0000      	12771.3921    	2330.00000    
783.5000      	12763.2419    	2486.18188    
784.0000      	12755.1020    	2350.90918    
784.5000      	12746.9726    	2848.81812    
785.0000      	12738.8535    	2582.36353    
785.5000      	12730.7447    	2443.90918    
786.0000      	12722.6463    	2420.90918    
786.5000      	12714.5582    	2449.45459    
787.0000      	12706.4803    	2807.54541    
787.5000      	12698.4127    	2599.45459    
788.0000      	12690.3553    	2993.18188    
788.5000      	12682.3082    	2613.90918    
789.0000      	12674.2712    	2712.09082    
789.5000      	12666.2445    	2587.63647    
790.0000      	12658.2278    	2504.18188    
790.5000      	12650.2214    	2543.90918    
791.0000      	12642.2250    	2445.00000    
791.5000      	12634.2388    	2510.72729    
792.0000      	12626.2626    	2672.45459    
792.5000      	12618.2965    	2572.63647    
793.0000      	12610.3405    	2447.27271    
793.5000      	12602.3945    	2361.18188    
794.0000      	12594.4584    	2692.27271    
794.5000      	12586.5324    	2732.63647    
795.0000      	12578.6164    	2784.18188    
795.5000      	12570.7102    	2689.63647    
796.0000      	12562.8141    	2405.27271    
796.5000      	12554.9278    	2407.54541    
797.0000      	12547.0514    	2690.72729    
797.5000      	12539.1850    	2559.36353    
798.0000      	12531.3283    	2563.27271    
798.5000      	12523.4815    	2389.81812    
799.0000      	12515.6446    	2322.63647    
799.5000      	12507.8174    	2680.45459    
800.0000      	12500.0000    	2916.27271    
