Unit Serial No : 240-LV0P465-EU
Integration Time : 60 ms
Time Average: 11
Binning Average: 0
FFT Smoothing: 0%
Project Name : Project Name
Sample Name : Sample Name
Measurement No : 1
Measurement Time : 09/18/2007   10:23:23

Wavelength(nm)	Wavenumber(1/cm)	Intensity(Counts)
350.0000      	28571.4286    	1576.45459    
350.5000      	28530.6705    	1555.36365    
351.0000      	28490.0285    	1531.72729    
351.5000      	28449.5021    	1541.27271    
352.0000      	28409.0909    	1506.00000    
352.5000      	28368.7943    	1514.18176    
353.0000      	28328.6119    	1478.63635    
353.5000      	28288.5431    	1544.54541    
354.0000      	28248.5876    	1436.45459    
354.5000      	28208.7447    	1426.00000    
355.0000      	28169.0141    	1466.81824    
355.5000      	28129.3952    	1503.54541    
356.0000      	28089.8876    	1397.54541    
356.5000      	28050.4909    	1478.18176    
357.0000      	28011.2045    	1463.72729    
357.5000      	27972.0280    	1451.72729    
358.0000      	27932.9609    	1475.72729    
358.5000      	27894.0028    	1642.36365    
359.0000      	27855.1532    	1498.45459    
359.5000      	27816.4117    	1527.00000    
360.0000      	27777.7778    	1455.72729    
360.5000      	27739.2510    	1474.81824    
361.0000      	27700.8310    	1489.90906    
361.5000      	27662.5173    	1591.90906    
362.0000      	27624.3094    	1533.18176    
362.5000      	27586.2069    	1564.45459    
363.0000      	27548.2094    	1562.90906    
363.5000      	27510.3164    	1444.81824    
364.0000      	27472.5275    	1391.27271    
364.5000      	27434.8422    	1439.90906    
365.0000      	27397.2603    	1476.09094    
365.5000      	27359.7811    	1523.81824    
366.0000      	27322.4044    	1508.27271    
366.5000      	27285.1296    	1486.72729    
367.0000      	27247.9564    	1488.45459    
367.5000      	27210.8844    	1614.54541    
368.0000      	27173.9130    	1489.81824    
368.5000      	27137.0421    	1588.27271    
369.0000      	27100.2710    	1485.27271    
369.5000      	27063.5995    	1491.00000    
370.0000      	27027.0270    	1604.45459    
370.5000      	26990.5533    	1423.00000    
371.0000      	26954.1779    	1521.63635    
371.5000      	26917.9004    	1462.72729    
372.0000      	26881.7204    	1470.09094    
372.5000      	26845.6376    	1545.90906    
373.0000      	26809.6515    	1460.36365    
373.5000      	26773.7617    	1523.09094    
374.0000      	26737.9679    	1586.63635    
374.5000      	26702.2697    	1491.09094    
375.0000      	26666.6667    	1443.63635    
375.5000      	26631.1585    	1506.18176    
376.0000      	26595.7447    	1507.90906    
376.5000      	26560.4250    	1426.81824    
377.0000      	26525.1989    	1496.09094    
377.5000      	26490.0662    	1526.36365    
378.0000      	26455.0265    	1485.81824    
378.5000      	26420.0793    	1487.54541    
379.0000      	26385.2243    	1490.81824    
379.5000      	26350.4611    	1499.36365    
380.0000      	26315.7895    	1476.18176    
380.5000      	26281.2089    	1475.81824    
381.0000      	26246.7192    	1505.36365    
381.5000      	26212.3198    	1467.81824    
382.0000      	26178.0105    	1500.54541    
382.5000      	26143.7908    	1540.18176    
383.0000      	26109.6606    	1533.09094    
383.5000      	26075.6193    	1467.63635    
384.0000      	26041.6667    	1618.00000    
384.5000      	26007.8023    	1478.63635    
385.0000      	25974.0260    	1453.81824    
385.5000      	25940.3372    	1457.45459    
386.0000      	25906.7358    	1428.45459    
386.5000      	25873.2212    	1479.18176    
387.0000      	25839.7933    	1500.63635    
387.5000      	25806.4516    	1448.00000    
388.0000      	25773.1959    	1520.18176    
388.5000      	25740.0257    	1474.81824    
389.0000      	25706.9409    	1485.45459    
389.5000      	25673.9409    	1509.72729    
390.0000      	25641.0256    	1485.72729    
390.5000      	25608.1946    	1482.45459    
391.0000      	25575.4476    	1507.54541    
391.5000      	25542.7842    	1585.54541    
392.0000      	25510.2041    	1457.09094    
392.5000      	25477.7070    	1451.18176    
393.0000      	25445.2926    	1540.18176    
393.5000      	25412.9606    	1424.09094    
394.0000      	25380.7107    	1569.72729    
394.5000      	25348.5425    	1440.81824    
395.0000      	25316.4557    	1532.81824    
395.5000      	25284.4501    	1501.09094    
396.0000      	25252.5253    	1619.00000    
396.5000      	25220.6810    	1478.45459    
397.0000      	25188.9169    	1527.63635    
397.5000      	25157.2327    	1515.45459    
398.0000      	25125.6281    	1514.18176    
398.5000      	25094.1029    	1451.81824    
399.0000      	25062.6566    	1521.18176    
399.5000      	25031.2891    	1585.81824    
400.0000      	25000.0000    	1537.09094    
400.5000      	24968.7890    	1454.45459    
401.0000      	24937.6559    	1494.09094    
401.5000      	24906.6002    	1528.18176    
402.0000      	24875.6219    	1602.18176    
402.5000      	24844.7205    	1512.09094    
403.0000      	24813.8958    	1384.54541    
403.5000      	24783.1475    	1493.63635    
404.0000      	24752.4752    	1507.81824    
404.5000      	24721.8789    	1576.63635    
405.0000      	24691.3580    	1505.18176    
405.5000      	24660.9125    	1466.27271    
406.0000      	24630.5419    	1458.36365    
406.5000      	24600.2460    	1454.27271    
407.0000      	24570.0246    	1514.45459    
407.5000      	24539.8773    	1462.09094    
408.0000      	24509.8039    	1432.54541    
408.5000      	24479.8042    	1438.27271    
409.0000      	24449.8778    	1445.63635    
409.5000      	24420.0244    	1501.27271    
410.0000      	24390.2439    	1499.18176    
410.5000      	24360.5359    	1577.45459    
411.0000      	24330.9002    	1517.18176    
411.5000      	24301.3366    	1516.45459    
412.0000      	24271.8447    	1558.72729    
412.5000      	24242.4242    	1469.18176    
413.0000      	24213.0751    	1545.90906    
413.5000      	24183.7969    	1503.63635    
414.0000      	24154.5894    	1465.72729    
414.5000      	24125.4524    	1452.72729    
415.0000      	24096.3855    	1414.81824    
415.5000      	24067.3887    	1474.18176    
416.0000      	24038.4615    	1518.09094    
416.5000      	24009.6038    	1508.00000    
417.0000      	23980.8153    	1473.81824    
417.5000      	23952.0958    	1439.45459    
418.0000      	23923.4450    	1538.00000    
418.5000      	23894.8626    	1512.00000    
419.0000      	23866.3484    	1514.90906    
419.5000      	23837.9023    	1445.09094    
420.0000      	23809.5238    	1466.18176    
420.5000      	23781.2128    	1515.09094    
421.0000      	23752.9691    	1468.63635    
421.5000      	23724.7924    	1453.36365    
422.0000      	23696.6825    	1504.18176    
422.5000      	23668.6391    	1480.45459    
423.0000      	23640.6619    	1508.27271    
423.5000      	23612.7509    	1436.54541    
424.0000      	23584.9057    	1511.45459    
424.5000      	23557.1260    	1549.63635    
425.0000      	23529.4118    	1451.36365    
425.5000      	23501.7626    	1461.72729    
426.0000      	23474.1784    	1458.81824    
426.5000      	23446.6589    	1489.45459    
427.0000      	23419.2037    	1472.36365    
427.5000      	23391.8129    	1498.45459    
428.0000      	23364.4860    	1451.09094    
428.5000      	23337.2229    	1461.27271    
429.0000      	23310.0233    	1616.54541    
429.5000      	23282.8871    	1517.72729    
430.0000      	23255.8140    	1476.45459    
430.5000      	23228.8037    	1490.72729    
431.0000      	23201.8561    	1583.81824    
431.5000      	23174.9710    	1451.09094    
432.0000      	23148.1481    	1439.00000    
432.5000      	23121.3873    	1485.72729    
433.0000      	23094.6882    	1418.09094    
433.5000      	23068.0507    	1475.45459    
434.0000      	23041.4747    	1578.63635    
434.5000      	23014.9597    	1451.18176    
435.0000      	22988.5057    	1504.72729    
435.5000      	22962.1125    	1549.63635    
436.0000      	22935.7798    	1508.63635    
436.5000      	22909.5074    	1453.63635    
437.0000      	22883.2952    	1451.63635    
437.5000      	22857.1429    	1463.90906    
438.0000      	22831.0502    	1428.45459    
438.5000      	22805.0171    	1406.36365    
439.0000      	22779.0433    	1416.09094    
439.5000      	22753.1286    	1394.54541    
440.0000      	22727.2727    	1632.81824    
440.5000      	22701.4756    	1528.00000    
441.0000      	22675.7370    	1624.09094    
441.5000      	22650.0566    	1439.90906    
442.0000      	22624.4344    	1434.27271    
442.5000      	22598.8701    	1566.54541    
443.0000      	22573.3634    	1517.90906    
443.5000      	22547.9143    	1501.81824    
444.0000      	22522.5225    	1493.90906    
444.5000      	22497.1879    	1514.54541    
445.0000      	22471.9101    	1537.09094    
445.5000      	22446.6891    	1368.09094    
446.0000      	22421.5247    	1406.27271    
446.5000      	22396.4166    	1502.18176    
447.0000      	22371.3647    	1413.54541    
447.5000      	22346.3687    	1464.27271    
448.0000      	22321.4286    	1517.45459    
448.5000      	22296.5440    	1434.90906    
449.0000      	22271.7149    	1488.90906    
449.5000      	22246.9410    	1586.45459    
450.0000      	22222.2222    	1466.09094    
450.5000      	22197.5583    	1515.45459    
451.0000      	22172.9490    	1522.81824    
451.5000      	22148.3942    	1512.09094    
452.0000      	22123.8938    	1454.36365    
452.5000      	22099.4475    	1434.81824    
453.0000      	22075.0552    	1463.09094    
453.5000      	22050.7166    	1440.09094    
454.0000      	22026.4317    	1412.36365    
454.5000      	22002.2002    	1436.72729    
455.0000      	21978.0220    	1464.45459    
455.5000      	21953.8968    	1498.63635    
456.0000      	21929.8246    	1489.27271    
456.5000      	21905.8050    	1518.27271    
457.0000      	21881.8381    	1593.27271    
457.5000      	21857.9235    	1579.36365    
458.0000      	21834.0611    	1501.45459    
458.5000      	21810.2508    	1427.63635    
459.0000      	21786.4924    	1591.45459    
459.5000      	21762.7856    	1490.81824    
460.0000      	21739.1304    	1534.18176    
460.5000      	21715.5266    	1472.00000    
461.0000      	21691.9740    	1505.27271    
461.5000      	21668.4724    	1596.45459    
462.0000      	21645.0216    	1535.27271    
462.5000      	21621.6216    	1450.45459    
463.0000      	21598.2721    	1512.54541    
463.5000      	21574.9730    	1451.90906    
464.0000      	21551.7241    	1443.27271    
464.5000      	21528.5253    	1503.27271    
465.0000      	21505.3763    	1586.00000    
465.5000      	21482.2771    	1494.00000    
466.0000      	21459.2275    	1805.18176    
466.5000      	21436.2272    	1410.63635    
467.0000      	21413.2762    	1451.72729    
467.5000      	21390.3743    	1548.54541    
468.0000      	21367.5214    	1458.36365    
468.5000      	21344.7172    	1485.27271    
469.0000      	21321.9616    	1602.63635    
469.5000      	21299.2545    	1552.45459    
470.0000      	21276.5957    	1476.81824    
470.5000      	21253.9851    	1581.00000    
471.0000      	21231.4225    	1534.27271    
471.5000      	21208.9077    	1458.63635    
472.0000      	21186.4407    	1404.18176    
472.5000      	21164.0212    	1468.72729    
473.0000      	21141.6490    	1509.45459    
473.5000      	21119.3242    	1458.09094    
474.0000      	21097.0464    	1583.54541    
474.5000      	21074.8156    	1535.00000    
475.0000      	21052.6316    	1401.90906    
475.5000      	21030.4942    	1537.00000    
476.0000      	21008.4034    	1471.72729    
476.5000      	20986.3589    	1495.81824    
477.0000      	20964.3606    	1548.45459    
477.5000      	20942.4084    	1603.63635    
478.0000      	20920.5021    	1625.81824    
478.5000      	20898.6416    	1583.27271    
479.0000      	20876.8267    	1569.09094    
479.5000      	20855.0574    	1574.18176    
480.0000      	20833.3333    	1563.09094    
480.5000      	20811.6545    	1589.54541    
481.0000      	20790.0208    	1651.09094    
481.5000      	20768.4320    	1560.18176    
482.0000      	20746.8880    	1599.90906    
482.5000      	20725.3886    	1730.63635    
483.0000      	20703.9337    	1686.00000    
483.5000      	20682.5233    	1724.90906    
484.0000      	20661.1570    	1733.45459    
484.5000      	20639.8349    	1749.81824    
485.0000      	20618.5567    	1751.27271    
485.5000      	20597.3223    	1834.54541    
486.0000      	20576.1317    	1864.63635    
486.5000      	20554.9846    	1752.54541    
487.0000      	20533.8809    	1849.54541    
487.5000      	20512.8205    	1882.54541    
488.0000      	20491.8033    	2021.27271    
488.5000      	20470.8291    	1909.72729    
489.0000      	20449.8978    	1936.27271    
489.5000      	20429.0092    	2070.27271    
490.0000      	20408.1633    	2135.36353    
490.5000      	20387.3598    	2140.72729    
491.0000      	20366.5988    	2153.09082    
491.5000      	20345.8800    	2315.18188    
492.0000      	20325.2033    	2297.09082    
492.5000      	20304.5685    	2371.36353    
493.0000      	20283.9757    	2548.72729    
493.5000      	20263.4245    	2401.09082    
494.0000      	20242.9150    	2550.81812    
494.5000      	20222.4469    	2697.18188    
495.0000      	20202.0202    	2766.90918    
495.5000      	20181.6347    	2787.72729    
496.0000      	20161.2903    	2964.00000    
496.5000      	20140.9869    	3003.18188    
497.0000      	20120.7243    	3096.81812    
497.5000      	20100.5025    	3315.90918    
498.0000      	20080.3213    	3321.54541    
498.5000      	20060.1805    	3476.00000    
499.0000      	20040.0802    	3771.54541    
499.5000      	20020.0200    	3757.18188    
500.0000      	20000.0000    	3859.18188    
500.5000      	19980.0200    	4056.27271    
501.0000      	19960.0798    	4260.63623    
501.5000      	19940.1795    	4343.27295    
502.0000      	19920.3187    	4487.90918    
502.5000      	19900.4975    	4625.00000    
503.0000      	19880.7157    	4758.90918    
503.5000      	19860.9732    	5052.45459    
504.0000      	19841.2698    	5275.00000    
504.5000      	19821.6056    	5510.09082    
505.0000      	19801.9802    	5568.63623    
505.5000      	19782.3937    	5741.72705    
506.0000      	19762.8458    	5961.72705    
506.5000      	19743.3366    	6162.18164    
507.0000      	19723.8659    	6475.27295    
507.5000      	19704.4335    	6635.90918    
508.0000      	19685.0394    	6808.18164    
508.5000      	19665.6834    	6939.00000    
509.0000      	19646.3654    	7145.54541    
509.5000      	19627.0854    	7415.72705    
510.0000      	19607.8431    	7625.90918    
510.5000      	19588.6386    	7675.72705    
511.0000      	19569.4716    	7842.00000    
511.5000      	19550.3421    	8120.90918    
512.0000      	19531.2500    	8254.63672    
512.5000      	19512.1951    	8225.18164    
513.0000      	19493.1774    	8308.00000    
513.5000      	19474.1967    	8394.72754    
514.0000      	19455.2529    	8536.09082    
514.5000      	19436.3460    	8546.81836    
515.0000      	19417.4757    	8563.54590    
515.5000      	19398.6421    	8693.00000    
516.0000      	19379.8450    	8607.36328    
516.5000      	19361.0842    	8635.90918    
517.0000      	19342.3598    	8527.27246    
517.5000      	19323.6715    	8641.27246    
518.0000      	19305.0193    	8543.09082    
518.5000      	19286.4031    	8429.54590    
519.0000      	19267.8227    	8311.90918    
519.5000      	19249.2782    	8268.18164    
520.0000      	19230.7692    	8145.63623    
520.5000      	19212.2959    	8095.00000    
521.0000      	19193.8580    	7971.54541    
521.5000      	19175.4554    	7745.36377    
522.0000      	19157.0881    	7708.09082    
522.5000      	19138.7560    	7481.36377    
523.0000      	19120.4589    	7350.72705    
523.5000      	19102.1968    	7145.54541    
524.0000      	19083.9695    	7018.36377    
524.5000      	19065.7769    	6839.18164    
525.0000      	19047.6190    	6714.18164    
525.5000      	19029.4957    	6450.72705    
526.0000      	19011.4068    	6363.72705    
526.5000      	18993.3523    	6435.81836    
527.0000      	18975.3321    	6045.81836    
527.5000      	18957.3460    	5790.09082    
528.0000      	18939.3939    	5762.90918    
528.5000      	18921.4759    	5757.18164    
529.0000      	18903.5917    	5505.45459    
529.5000      	18885.7413    	5374.00000    
530.0000      	18867.9245    	5184.54541    
530.5000      	18850.1414    	5029.63623    
531.0000      	18832.3917    	5070.00000    
531.5000      	18814.6754    	4908.81836    
532.0000      	18796.9925    	4846.18164    
532.5000      	18779.3427    	4695.45459    
533.0000      	18761.7261    	4545.00000    
533.5000      	18744.1425    	4491.27295    
534.0000      	18726.5918    	4438.90918    
534.5000      	18709.0739    	4301.09082    
535.0000      	18691.5888    	4308.09082    
535.5000      	18674.1363    	4125.63623    
536.0000      	18656.7164    	4172.27295    
536.5000      	18639.3290    	3999.27271    
537.0000      	18621.9739    	3932.81812    
537.5000      	18604.6512    	3890.45459    
538.0000      	18587.3606    	3799.00000    
538.5000      	18570.1021    	3750.18188    
539.0000      	18552.8757    	3692.27271    
539.5000      	18535.6812    	3654.54541    
540.0000      	18518.5185    	3492.18188    
540.5000      	18501.3876    	3458.63647    
541.0000      	18484.2884    	3491.09082    
541.5000      	18467.2207    	3413.45459    
542.0000      	18450.1845    	3379.27271    
542.5000      	18433.1797    	3227.90918    
543.0000      	18416.2063    	3239.36353    
543.5000      	18399.2640    	3254.81812    
544.0000      	18382.3529    	3169.54541    
544.5000      	18365.4729    	3050.09082    
545.0000      	18348.6239    	3101.72729    
545.5000      	18331.8057    	3019.72729    
546.0000      	18315.0183    	3072.18188    
546.5000      	18298.2617    	2925.72729    
547.0000      	18281.5356    	2878.90918    
547.5000      	18264.8402    	2835.00000    
548.0000      	18248.1752    	2817.54541    
548.5000      	18231.5406    	2686.54541    
549.0000      	18214.9362    	2733.45459    
549.5000      	18198.3621    	2694.45459    
550.0000      	18181.8182    	2600.81812    
550.5000      	18165.3043    	2619.09082    
551.0000      	18148.8203    	2508.81812    
551.5000      	18132.3663    	2501.00000    
552.0000      	18115.9420    	2435.90918    
552.5000      	18099.5475    	2406.36353    
553.0000      	18083.1826    	2336.36353    
553.5000      	18066.8473    	2499.63647    
554.0000      	18050.5415    	2385.18188    
554.5000      	18034.2651    	2333.09082    
555.0000      	18018.0180    	2214.54541    
555.5000      	18001.8002    	2216.45459    
556.0000      	17985.6115    	2157.81812    
556.5000      	17969.4519    	2129.00000    
557.0000      	17953.3214    	2161.54541    
557.5000      	17937.2197    	2122.54541    
558.0000      	17921.1470    	2108.09082    
558.5000      	17905.1030    	2081.18188    
559.0000      	17889.0877    	2081.18188    
559.5000      	17873.1010    	2140.54541    
560.0000      	17857.1429    	2098.45459    
560.5000      	17841.2132    	1978.63635    
561.0000      	17825.3119    	2058.81812    
561.5000      	17809.4390    	1904.81824    
562.0000      	17793.5943    	1972.81824    
562.5000      	17777.7778    	1970.45459    
563.0000      	17761.9893    	1918.27271    
563.5000      	17746.2289    	1846.36365    
564.0000      	17730.4965    	1929.00000    
564.5000      	17714.7919    	1911.45459    
565.0000      	17699.1150    	1825.00000    
565.5000      	17683.4660    	1756.63635    
566.0000      	17667.8445    	1891.09094    
566.5000      	17652.2507    	1777.63635    
567.0000      	17636.6843    	1790.90906    
567.5000      	17621.1454    	1775.18176    
568.0000      	17605.6338    	1756.81824    
568.5000      	17590.1495    	1723.36365    
569.0000      	17574.6924    	1751.00000    
569.5000      	17559.2625    	1734.27271    
570.0000      	17543.8596    	1721.09094    
570.5000      	17528.4838    	1674.00000    
571.0000      	17513.1349    	1705.81824    
571.5000      	17497.8128    	1757.18176    
572.0000      	17482.5175    	1677.45459    
572.5000      	17467.2489    	1771.72729    
573.0000      	17452.0070    	1599.18176    
573.5000      	17436.7916    	1691.45459    
574.0000      	17421.6028    	1651.63635    
574.5000      	17406.4404    	1649.81824    
575.0000      	17391.3043    	1641.54541    
575.5000      	17376.1946    	1632.36365    
576.0000      	17361.1111    	1643.18176    
576.5000      	17346.0538    	1601.63635    
577.0000      	17331.0225    	1559.27271    
577.5000      	17316.0173    	1540.63635    
578.0000      	17301.0381    	1612.63635    
578.5000      	17286.0847    	1585.81824    
579.0000      	17271.1572    	1628.81824    
579.5000      	17256.2554    	1599.09094    
580.0000      	17241.3793    	1824.90906    
580.5000      	17226.5289    	1654.45459    
581.0000      	17211.7040    	1619.45459    
581.5000      	17196.9046    	1497.81824    
582.0000      	17182.1306    	1592.81824    
582.5000      	17167.3820    	1609.27271    
583.0000      	17152.6587    	1546.90906    
583.5000      	17137.9606    	1621.45459    
584.0000      	17123.2877    	1517.54541    
584.5000      	17108.6399    	1464.45459    
585.0000      	17094.0171    	1489.18176    
585.5000      	17079.4193    	1444.63635    
586.0000      	17064.8464    	1532.36365    
586.5000      	17050.2984    	1507.45459    
587.0000      	17035.7751    	1512.36365    
587.5000      	17021.2766    	1517.45459    
588.0000      	17006.8027    	1561.45459    
588.5000      	16992.3534    	1563.54541    
589.0000      	16977.9287    	1569.27271    
589.5000      	16963.5284    	1545.54541    
590.0000      	16949.1525    	1658.09094    
590.5000      	16934.8010    	1537.36365    
591.0000      	16920.4738    	1517.54541    
591.5000      	16906.1708    	1600.72729    
592.0000      	16891.8919    	1503.90906    
592.5000      	16877.6371    	1540.18176    
593.0000      	16863.4064    	1517.72729    
593.5000      	16849.1997    	1518.09094    
594.0000      	16835.0168    	1438.81824    
594.5000      	16820.8579    	1672.54541    
595.0000      	16806.7227    	1504.36365    
595.5000      	16792.6113    	1430.54541    
596.0000      	16778.5235    	1586.36365    
596.5000      	16764.4593    	1525.09094    
597.0000      	16750.4188    	1492.09094    
597.5000      	16736.4017    	1459.45459    
598.0000      	16722.4080    	1553.36365    
598.5000      	16708.4378    	1569.36365    
599.0000      	16694.4908    	1548.09094    
599.5000      	16680.5671    	1488.90906    
600.0000      	16666.6667    	1522.27271    
600.5000      	16652.7893    	1548.00000    
601.0000      	16638.9351    	1567.90906    
601.5000      	16625.1039    	1483.63635    
602.0000      	16611.2957    	1462.00000    
602.5000      	16597.5104    	1466.81824    
603.0000      	16583.7479    	1450.81824    
603.5000      	16570.0083    	1412.90906    
604.0000      	16556.2914    	1442.54541    
604.5000      	16542.5972    	1568.27271    
605.0000      	16528.9256    	1572.63635    
605.5000      	16515.2766    	1473.45459    
606.0000      	16501.6502    	1429.90906    
606.5000      	16488.0462    	1478.18176    
607.0000      	16474.4646    	1468.18176    
607.5000      	16460.9053    	1557.36365    
608.0000      	16447.3684    	1571.18176    
608.5000      	16433.8537    	1481.27271    
609.0000      	16420.3612    	1568.72729    
609.5000      	16406.8909    	1449.00000    
610.0000      	16393.4426    	1524.72729    
610.5000      	16380.0164    	1581.18176    
611.0000      	16366.6121    	1431.90906    
611.5000      	16353.2298    	1494.00000    
612.0000      	16339.8693    	1466.45459    
612.5000      	16326.5306    	1552.00000    
613.0000      	16313.2137    	1435.18176    
613.5000      	16299.9185    	1557.54541    
614.0000      	16286.6450    	1446.90906    
614.5000      	16273.3930    	1473.27271    
615.0000      	16260.1626    	1447.09094    
615.5000      	16246.9537    	1431.90906    
616.0000      	16233.7662    	1478.72729    
616.5000      	16220.6002    	1435.90906    
617.0000      	16207.4554    	1496.81824    
617.5000      	16194.3320    	1456.00000    
618.0000      	16181.2298    	1372.54541    
618.5000      	16168.1487    	1505.18176    
619.0000      	16155.0889    	1496.72729    
619.5000      	16142.0500    	1449.72729    
620.0000      	16129.0323    	1475.63635    
620.5000      	16116.0355    	1525.27271    
621.0000      	16103.0596    	1435.09094    
621.5000      	16090.1046    	1387.72729    
622.0000      	16077.1704    	1425.54541    
622.5000      	16064.2570    	1538.81824    
623.0000      	16051.3644    	1461.54541    
623.5000      	16038.4924    	1419.00000    
624.0000      	16025.6410    	1458.45459    
624.5000      	16012.8102    	1593.90906    
625.0000      	16000.0000    	1491.00000    
625.5000      	15987.2102    	1456.63635    
626.0000      	15974.4409    	1491.81824    
626.5000      	15961.6919    	1433.09094    
627.0000      	15948.9633    	1500.81824    
627.5000      	15936.2550    	1515.81824    
628.0000      	15923.5669    	1520.09094    
628.5000      	15910.8990    	1399.72729    
629.0000      	15898.2512    	1459.54541    
629.5000      	15885.6235    	1397.00000    
630.0000      	15873.0159    	1395.36365    
630.5000      	15860.4282    	1443.90906    
631.0000      	15847.8605    	1452.27271    
631.5000      	15835.3127    	1412.63635    
632.0000      	15822.7848    	1458.27271    
632.5000      	15810.2767    	1480.54541    
633.0000      	15797.7883    	1409.45459    
633.5000      	15785.3197    	1359.90906    
634.0000      	15772.8707    	1532.63635    
634.5000      	15760.4413    	1491.90906    
635.0000      	15748.0315    	1453.00000    
635.5000      	15735.6412    	1540.09094    
636.0000      	15723.2704    	1515.90906    
636.5000      	15710.9191    	1433.63635    
637.0000      	15698.5871    	1551.00000    
637.5000      	15686.2745    	1522.90906    
638.0000      	15673.9812    	1455.36365    
638.5000      	15661.7071    	1423.18176    
639.0000      	15649.4523    	1541.36365    
639.5000      	15637.2166    	1482.54541    
640.0000      	15625.0000    	1548.09094    
640.5000      	15612.8025    	1516.45459    
641.0000      	15600.6240    	1479.63635    
641.5000      	15588.4645    	1499.81824    
642.0000      	15576.3240    	1375.45459    
642.5000      	15564.2023    	1506.54541    
643.0000      	15552.0995    	1375.81824    
643.5000      	15540.0155    	1394.00000    
644.0000      	15527.9503    	1450.90906    
644.5000      	15515.9038    	1485.36365    
645.0000      	15503.8760    	1413.81824    
645.5000      	15491.8668    	1468.90906    
646.0000      	15479.8762    	1436.72729    
646.5000      	15467.9041    	1458.81824    
647.0000      	15455.9505    	1427.09094    
647.5000      	15444.0154    	1489.36365    
648.0000      	15432.0988    	1480.45459    
648.5000      	15420.2005    	1528.00000    
649.0000      	15408.3205    	1462.18176    
649.5000      	15396.4588    	1529.00000    
650.0000      	15384.6154    	1442.72729    
650.5000      	15372.7902    	1423.00000    
651.0000      	15360.9831    	1422.63635    
651.5000      	15349.1942    	1382.36365    
652.0000      	15337.4233    	1531.45459    
652.5000      	15325.6705    	1431.72729    
653.0000      	15313.9357    	1402.81824    
653.5000      	15302.2188    	1424.81824    
654.0000      	15290.5199    	1423.27271    
654.5000      	15278.8388    	1389.81824    
655.0000      	15267.1756    	1369.90906    
655.5000      	15255.5301    	1436.54541    
656.0000      	15243.9024    	1450.36365    
656.5000      	15232.2925    	1442.63635    
657.0000      	15220.7002    	1414.27271    
657.5000      	15209.1255    	1592.00000    
658.0000      	15197.5684    	1458.90906    
658.5000      	15186.0289    	1422.09094    
659.0000      	15174.5068    	1358.54541    
659.5000      	15163.0023    	1489.27271    
660.0000      	15151.5152    	1411.27271    
660.5000      	15140.0454    	1434.09094    
661.0000      	15128.5930    	1513.18176    
661.5000      	15117.1580    	1528.09094    
662.0000      	15105.7402    	1496.00000    
662.5000      	15094.3396    	1543.63635    
663.0000      	15082.9563    	1467.81824    
663.5000      	15071.5901    	1490.63635    
664.0000      	15060.2410    	1430.72729    
664.5000      	15048.9090    	1408.63635    
665.0000      	15037.5940    	1475.45459    
665.5000      	15026.2960    	1481.63635    
666.0000      	15015.0150    	1474.00000    
666.5000      	15003.7509    	1473.54541    
667.0000      	14992.5037    	1486.00000    
667.5000      	14981.2734    	1532.09094    
668.0000      	14970.0599    	1494.90906    
668.5000      	14958.8631    	1414.36365    
669.0000      	14947.6831    	1428.18176    
669.5000      	14936.5198    	1403.90906    
670.0000      	14925.3731    	1432.54541    
670.5000      	14914.2431    	1478.09094    
671.0000      	14903.1297    	1507.54541    
671.5000      	14892.0328    	1466.36365    
672.0000      	14880.9524    	1448.63635    
672.5000      	14869.8885    	1432.45459    
673.0000      	14858.8410    	1457.18176    
673.5000      	14847.8099    	1428.45459    
674.0000      	14836.7953    	1479.36365    
674.5000      	14825.7969    	1588.63635    
675.0000      	14814.8148    	1540.63635    
675.5000      	14803.8490    	1473.90906    
676.0000      	14792.8994    	1469.00000    
676.5000      	14781.9660    	1521.72729    
677.0000      	14771.0487    	1575.72729    
677.5000      	14760.1476    	1469.36365    
678.0000      	14749.2625    	1490.54541    
678.5000      	14738.3935    	1503.18176    
679.0000      	14727.5405    	1609.36365    
679.5000      	14716.7035    	1505.45459    
680.0000      	14705.8824    	1488.45459    
680.5000      	14695.0771    	1414.90906    
681.0000      	14684.2878    	1432.63635    
681.5000      	14673.5143    	1512.00000    
682.0000      	14662.7566    	1484.72729    
682.5000      	14652.0147    	1525.45459    
683.0000      	14641.2884    	1461.00000    
683.5000      	14630.5779    	1514.72729    
684.0000      	14619.8830    	1451.45459    
684.5000      	14609.2038    	1469.00000    
685.0000      	14598.5401    	1451.00000    
685.5000      	14587.8920    	1374.09094    
686.0000      	14577.2595    	1433.90906    
686.5000      	14566.6424    	1429.45459    
687.0000      	14556.0408    	1410.72729    
687.5000      	14545.4545    	1377.63635    
688.0000      	14534.8837    	1528.90906    
688.5000      	14524.3282    	1641.90906    
689.0000      	14513.7881    	1407.72729    
689.5000      	14503.2632    	1403.45459    
690.0000      	14492.7536    	1560.27271    
690.5000      	14482.2592    	1435.00000    
691.0000      	14471.7800    	1483.45459    
691.5000      	14461.3160    	1442.54541    
692.0000      	14450.8671    	1450.18176    
692.5000      	14440.4332    	1633.36365    
693.0000      	14430.0144    	1508.00000    
693.5000      	14419.6107    	1458.09094    
694.0000      	14409.2219    	1577.45459    
694.5000      	14398.8481    	1475.63635    
695.0000      	14388.4892    	1447.00000    
695.5000      	14378.1452    	1449.90906    
696.0000      	14367.8161    	1420.18176    
696.5000      	14357.5018    	1520.27271    
697.0000      	14347.2023    	1459.00000    
697.5000      	14336.9176    	1460.09094    
698.0000      	14326.6476    	1515.54541    
698.5000      	14316.3923    	1477.36365    
699.0000      	14306.1516    	1483.63635    
699.5000      	14295.9257    	1470.63635    
700.0000      	14285.7143    	1472.63635    
700.5000      	14275.5175    	1505.54541    
701.0000      	14265.3352    	1585.27271    
701.5000      	14255.1675    	1425.63635    
702.0000      	14245.0142    	1472.45459    
702.5000      	14234.8754    	1457.63635    
703.0000      	14224.7511    	1417.54541    
703.5000      	14214.6411    	1420.72729    
704.0000      	14204.5455    	1365.45459    
704.5000      	14194.4642    	1493.18176    
705.0000      	14184.3972    	1461.81824    
705.5000      	14174.3444    	1442.90906    
706.0000      	14164.3059    	1528.54541    
706.5000      	14154.2817    	1522.63635    
707.0000      	14144.2716    	1485.54541    
707.5000      	14134.2756    	1461.45459    
708.0000      	14124.2938    	1423.90906    
708.5000      	14114.3260    	1429.90906    
709.0000      	14104.3724    	1488.27271    
709.5000      	14094.4327    	1615.18176    
710.0000      	14084.5070    	1450.00000    
710.5000      	14074.5954    	1450.45459    
711.0000      	14064.6976    	1529.45459    
711.5000      	14054.8138    	1522.27271    
712.0000      	14044.9438    	1479.36365    
712.5000      	14035.0877    	1488.54541    
713.0000      	14025.2454    	1459.63635    
713.5000      	14015.4170    	1583.00000    
714.0000      	14005.6022    	1506.81824    
714.5000      	13995.8013    	1562.09094    
715.0000      	13986.0140    	1426.81824    
715.5000      	13976.2404    	1477.09094    
716.0000      	13966.4804    	1480.72729    
716.5000      	13956.7341    	1472.18176    
717.0000      	13947.0014    	1478.45459    
717.5000      	13937.2822    	1469.09094    
718.0000      	13927.5766    	1495.27271    
718.5000      	13917.8845    	1508.36365    
719.0000      	13908.2058    	1490.72729    
719.5000      	13898.5407    	1508.18176    
720.0000      	13888.8889    	1550.63635    
720.5000      	13879.2505    	1513.81824    
721.0000      	13869.6255    	1455.36365    
721.5000      	13860.0139    	1449.27271    
722.0000      	13850.4155    	1479.27271    
722.5000      	13840.8304    	1371.09094    
723.0000      	13831.2586    	1433.27271    
723.5000      	13821.7001    	1398.45459    
724.0000      	13812.1547    	1376.63635    
724.5000      	13802.6225    	1383.18176    
725.0000      	13793.1034    	1455.54541    
725.5000      	13783.5975    	1453.72729    
726.0000      	13774.1047    	1424.36365    
726.5000      	13764.6249    	1469.27271    
727.0000      	13755.1582    	1429.00000    
727.5000      	13745.7045    	1455.27271    
728.0000      	13736.2637    	1470.27271    
728.5000      	13726.8360    	1494.81824    
729.0000      	13717.4211    	1497.63635    
729.5000      	13708.0192    	1474.54541    
730.0000      	13698.6301    	1488.72729    
730.5000      	13689.2539    	1481.72729    
731.0000      	13679.8906    	1516.63635    
731.5000      	13670.5400    	1468.09094    
732.0000      	13661.2022    	1436.81824    
732.5000      	13651.8771    	1515.72729    
733.0000      	13642.5648    	1463.36365    
733.5000      	13633.2652    	1531.18176    
734.0000      	13623.9782    	1516.63635    
734.5000      	13614.7039    	1449.54541    
735.0000      	13605.4422    	1519.45459    
735.5000      	13596.1931    	1438.45459    
736.0000      	13586.9565    	1496.54541    
736.5000      	13577.7325    	1539.09094    
737.0000      	13568.5210    	1536.09094    
737.5000      	13559.3220    	1455.63635    
738.0000      	13550.1355    	1444.36365    
738.5000      	13540.9614    	1419.18176    
739.0000      	13531.7997    	1401.72729    
739.5000      	13522.6504    	1439.63635    
740.0000      	13513.5135    	1425.27271    
740.5000      	13504.3889    	1380.27271    
741.0000      	13495.2767    	1462.45459    
741.5000      	13486.1767    	1567.18176    
742.0000      	13477.0889    	1593.63635    
742.5000      	13468.0135    	1404.45459    
743.0000      	13458.9502    	1431.72729    
743.5000      	13449.8991    	1488.72729    
744.0000      	13440.8602    	1455.81824    
744.5000      	13431.8334    	1501.54541    
745.0000      	13422.8188    	1446.09094    
745.5000      	13413.8162    	1412.18176    
746.0000      	13404.8257    	1415.45459    
746.5000      	13395.8473    	1496.63635    
747.0000      	13386.8809    	1428.09094    
747.5000      	13377.9264    	1499.18176    
748.0000      	13368.9840    	1440.36365    
748.5000      	13360.0534    	1477.27271    
749.0000      	13351.1348    	1454.45459    
749.5000      	13342.2282    	1424.00000    
750.0000      	13333.3333    	1407.90906    
750.5000      	13324.4504    	1478.81824    
751.0000      	13315.5792    	1519.00000    
751.5000      	13306.7199    	1537.72729    
752.0000      	13297.8723    	1572.45459    
752.5000      	13289.0365    	1588.72729    
753.0000      	13280.2125    	1629.63635    
753.5000      	13271.4001    	1533.27271    
754.0000      	13262.5995    	1457.18176    
754.5000      	13253.8105    	1527.27271    
755.0000      	13245.0331    	1484.45459    
755.5000      	13236.2674    	1456.72729    
756.0000      	13227.5132    	1519.00000    
756.5000      	13218.7707    	1503.27271    
757.0000      	13210.0396    	1474.81824    
757.5000      	13201.3201    	1456.63635    
758.0000      	13192.6121    	1516.72729    
758.5000      	13183.9156    	1529.18176    
759.0000      	13175.2306    	1562.63635    
759.5000      	13166.5569    	1434.09094    
760.0000      	13157.8947    	1459.27271    
760.5000      	13149.2439    	1553.63635    
761.0000      	13140.6045    	1416.72729    
761.5000      	13131.9764    	1589.09094    
762.0000      	13123.3596    	1484.90906    
762.5000      	13114.7541    	1490.45459    
763.0000      	13106.1599    	1476.72729    
763.5000      	13097.5769    	1498.90906    
764.0000      	13089.0052    	1472.09094    
764.5000      	13080.4447    	1379.09094    
765.0000      	13071.8954    	1438.45459    
765.5000      	13063.3573    	1502.72729    
766.0000      	13054.8303    	1520.45459    
766.5000      	13046.3144    	1516.36365    
767.0000      	13037.8096    	1497.00000    
767.5000      	13029.3160    	1386.54541    
768.0000      	13020.8333    	1488.45459    
768.5000      	13012.3617    	1540.81824    
769.0000      	13003.9012    	1499.00000    
769.5000      	12995.4516    	1503.36365    
770.0000      	12987.0130    	1488.90906    
770.5000      	12978.5853    	1457.00000    
771.0000      	12970.1686    	1522.72729    
771.5000      	12961.7628    	1601.45459    
772.0000      	12953.3679    	1455.81824    
772.5000      	12944.9838    	1476.45459    
773.0000      	12936.6106    	1475.36365    
773.5000      	12928.2482    	1480.36365    
774.0000      	12919.8966    	1516.63635    
774.5000      	12911.5558    	1463.81824    
775.0000      	12903.2258    	1494.72729    
775.5000      	12894.9065    	1493.72729    
776.0000      	12886.5979    	1452.00000    
776.5000      	12878.3001    	1441.81824    
777.0000      	12870.0129    	1460.09094    
777.5000      	12861.7363    	1396.81824    
778.0000      	12853.4704    	1470.45459    
778.5000      	12845.2152    	1592.00000    
779.0000      	12836.9705    	1526.09094    
779.5000      	12828.7364    	1529.90906    
780.0000      	12820.5128    	1424.54541    
780.5000      	12812.2998    	1423.90906    
781.0000      	12804.0973    	1472.72729    
781.5000      	12795.9053    	1526.81824    
782.0000      	12787.7238    	1494.63635    
782.5000      	12779.5527    	1434.90906    
783.0000      	12771.3921    	1411.81824    
783.5000      	12763.2419    	1472.45459    
784.0000      	12755.1020    	1432.09094    
784.5000      	12746.9726    	1542.09094    
785.0000      	12738.8535    	1451.72729    
785.5000      	12730.7447    	1431.63635    
786.0000      	12722.6463    	1429.36365    
786.5000      	12714.5582    	1457.27271    
787.0000      	12706.4803    	1528.72729    
787.5000      	12698.4127    	1469.63635    
788.0000      	12690.3553    	1586.00000    
788.5000      	12682.3082    	1481.27271    
789.0000      	12674.2712    	1527.54541    
789.5000      	12666.2445    	1485.72729    
790.0000      	12658.2278    	1473.18176    
790.5000      	12650.2214    	1465.00000    
791.0000      	12642.2250    	1435.90906    
791.5000      	12634.2388    	1450.81824    
792.0000      	12626.2626    	1505.63635    
792.5000      	12618.2965    	1485.27271    
793.0000      	12610.3405    	1443.81824    
793.5000      	12602.3945    	1440.27271    
794.0000      	12594.4584    	1528.90906    
794.5000      	12586.5324    	1517.27271    
795.0000      	12578.6164    	1508.45459    
795.5000      	12570.7102    	1486.81824    
796.0000      	12562.8141    	1445.00000    
796.5000      	12554.9278    	1425.72729    
797.0000      	12547.0514    	1497.72729    
797.5000      	12539.1850    	1471.54541    
798.0000      	12531.3283    	1488.27271    
798.5000      	12523.4815    	1439.09094    
799.0000      	12515.6446    	1410.45459    
799.5000      	12507.8174    	1507.36365    
800.0000      	12500.0000    	1576.27271    
