Unit Serial No : 240-LV0P465-EU
Integration Time : 113 ms
Time Average: 11
Binning Average: 0
FFT Smoothing: 0%
Project Name : Project Name
Sample Name : Sample Name
Measurement No : 1
Measurement Time : 09/18/2007   09:23:29

Wavelength(nm)	Wavenumber(1/cm)	Intensity(Counts)
350.0000      	28571.4286    	2057.63647    
350.5000      	28530.6705    	2032.09094    
351.0000      	28490.0285    	2020.09094    
351.5000      	28449.5021    	2033.72729    
352.0000      	28409.0909    	1981.54541    
352.5000      	28368.7943    	1981.27271    
353.0000      	28328.6119    	1946.72729    
353.5000      	28288.5431    	2037.63635    
354.0000      	28248.5876    	1920.36365    
354.5000      	28208.7447    	1897.27271    
355.0000      	28169.0141    	1936.00000    
355.5000      	28129.3952    	1980.00000    
356.0000      	28089.8876    	1801.81824    
356.5000      	28050.4909    	1911.45459    
357.0000      	28011.2045    	1911.18176    
357.5000      	27972.0280    	1933.18176    
358.0000      	27932.9609    	1958.09094    
358.5000      	27894.0028    	2154.27271    
359.0000      	27855.1532    	1934.27271    
359.5000      	27816.4117    	1982.36365    
360.0000      	27777.7778    	1950.63635    
360.5000      	27739.2510    	1963.45459    
361.0000      	27700.8310    	1974.09094    
361.5000      	27662.5173    	2100.09082    
362.0000      	27624.3094    	2005.09094    
362.5000      	27586.2069    	2053.36353    
363.0000      	27548.2094    	2050.45459    
363.5000      	27510.3164    	1914.00000    
364.0000      	27472.5275    	1799.36365    
364.5000      	27434.8422    	1862.27271    
365.0000      	27397.2603    	1950.45459    
365.5000      	27359.7811    	1957.00000    
366.0000      	27322.4044    	2005.00000    
366.5000      	27285.1296    	1972.27271    
367.0000      	27247.9564    	1972.63635    
367.5000      	27210.8844    	2119.45459    
368.0000      	27173.9130    	1961.54541    
368.5000      	27137.0421    	2109.81812    
369.0000      	27100.2710    	1950.09094    
369.5000      	27063.5995    	1938.81824    
370.0000      	27027.0270    	2103.90918    
370.5000      	26990.5533    	1863.90906    
371.0000      	26954.1779    	1995.72729    
371.5000      	26917.9004    	1871.81824    
372.0000      	26881.7204    	1900.54541    
372.5000      	26845.6376    	1998.36365    
373.0000      	26809.6515    	1901.09094    
373.5000      	26773.7617    	1997.90906    
374.0000      	26737.9679    	2117.18188    
374.5000      	26702.2697    	1974.63635    
375.0000      	26666.6667    	1916.00000    
375.5000      	26631.1585    	1968.00000    
376.0000      	26595.7447    	1956.63635    
376.5000      	26560.4250    	1897.72729    
377.0000      	26525.1989    	1970.63635    
377.5000      	26490.0662    	1971.00000    
378.0000      	26455.0265    	1935.36365    
378.5000      	26420.0793    	1942.54541    
379.0000      	26385.2243    	1973.81824    
379.5000      	26350.4611    	1979.36365    
380.0000      	26315.7895    	1901.09094    
380.5000      	26281.2089    	1933.00000    
381.0000      	26246.7192    	1933.72729    
381.5000      	26212.3198    	1900.09094    
382.0000      	26178.0105    	1953.81824    
382.5000      	26143.7908    	2026.45459    
383.0000      	26109.6606    	2023.27271    
383.5000      	26075.6193    	1932.63635    
384.0000      	26041.6667    	2136.18188    
384.5000      	26007.8023    	1951.09094    
385.0000      	25974.0260    	1950.45459    
385.5000      	25940.3372    	1931.63635    
386.0000      	25906.7358    	1858.18176    
386.5000      	25873.2212    	1938.81824    
387.0000      	25839.7933    	1973.72729    
387.5000      	25806.4516    	1921.27271    
388.0000      	25773.1959    	2025.63635    
388.5000      	25740.0257    	1999.36365    
389.0000      	25706.9409    	1953.72729    
389.5000      	25673.9409    	2002.72729    
390.0000      	25641.0256    	1948.54541    
390.5000      	25608.1946    	1938.54541    
391.0000      	25575.4476    	1966.09094    
391.5000      	25542.7842    	2085.45459    
392.0000      	25510.2041    	1906.45459    
392.5000      	25477.7070    	1896.90906    
393.0000      	25445.2926    	2033.81824    
393.5000      	25412.9606    	1928.54541    
394.0000      	25380.7107    	2080.27271    
394.5000      	25348.5425    	1884.18176    
395.0000      	25316.4557    	2010.36365    
395.5000      	25284.4501    	1952.09094    
396.0000      	25252.5253    	2106.90918    
396.5000      	25220.6810    	1970.81824    
397.0000      	25188.9169    	2023.81824    
397.5000      	25157.2327    	2006.27271    
398.0000      	25125.6281    	1998.81824    
398.5000      	25094.1029    	1933.72729    
399.0000      	25062.6566    	2031.36365    
399.5000      	25031.2891    	2092.45459    
400.0000      	25000.0000    	2033.27271    
400.5000      	24968.7890    	1940.27271    
401.0000      	24937.6559    	1925.27271    
401.5000      	24906.6002    	2026.09094    
402.0000      	24875.6219    	2103.45459    
402.5000      	24844.7205    	2008.81824    
403.0000      	24813.8958    	1851.18176    
403.5000      	24783.1475    	1991.18176    
404.0000      	24752.4752    	1994.81824    
404.5000      	24721.8789    	2059.00000    
405.0000      	24691.3580    	1971.45459    
405.5000      	24660.9125    	1930.18176    
406.0000      	24630.5419    	1909.90906    
406.5000      	24600.2460    	1908.81824    
407.0000      	24570.0246    	2011.00000    
407.5000      	24539.8773    	1900.81824    
408.0000      	24509.8039    	1879.63635    
408.5000      	24479.8042    	1891.09094    
409.0000      	24449.8778    	1882.54541    
409.5000      	24420.0244    	1985.18176    
410.0000      	24390.2439    	1978.54541    
410.5000      	24360.5359    	2085.00000    
411.0000      	24330.9002    	2041.36365    
411.5000      	24301.3366    	2015.90906    
412.0000      	24271.8447    	2082.54541    
412.5000      	24242.4242    	1932.72729    
413.0000      	24213.0751    	2049.54541    
413.5000      	24183.7969    	2003.00000    
414.0000      	24154.5894    	1970.27271    
414.5000      	24125.4524    	1929.90906    
415.0000      	24096.3855    	1886.81824    
415.5000      	24067.3887    	1954.36365    
416.0000      	24038.4615    	2038.27271    
416.5000      	24009.6038    	2033.27271    
417.0000      	23980.8153    	1991.27271    
417.5000      	23952.0958    	1919.72729    
418.0000      	23923.4450    	2062.27271    
418.5000      	23894.8626    	2017.09094    
419.0000      	23866.3484    	2043.72729    
419.5000      	23837.9023    	1973.90906    
420.0000      	23809.5238    	2039.00000    
420.5000      	23781.2128    	2063.90918    
421.0000      	23752.9691    	2041.90906    
421.5000      	23724.7924    	2048.81812    
422.0000      	23696.6825    	2137.90918    
422.5000      	23668.6391    	2117.45459    
423.0000      	23640.6619    	2112.45459    
423.5000      	23612.7509    	2050.27271    
424.0000      	23584.9057    	2156.09082    
424.5000      	23557.1260    	2238.45459    
425.0000      	23529.4118    	2124.72729    
425.5000      	23501.7626    	2144.27271    
426.0000      	23474.1784    	2155.81812    
426.5000      	23446.6589    	2199.90918    
427.0000      	23419.2037    	2253.90918    
427.5000      	23391.8129    	2332.00000    
428.0000      	23364.4860    	2261.63647    
428.5000      	23337.2229    	2308.63647    
429.0000      	23310.0233    	2560.63647    
429.5000      	23282.8871    	2452.27271    
430.0000      	23255.8140    	2424.45459    
430.5000      	23228.8037    	2491.90918    
431.0000      	23201.8561    	2606.00000    
431.5000      	23174.9710    	2475.72729    
432.0000      	23148.1481    	2480.90918    
432.5000      	23121.3873    	2588.81812    
433.0000      	23094.6882    	2583.00000    
433.5000      	23068.0507    	2719.63647    
434.0000      	23041.4747    	2894.27271    
434.5000      	23014.9597    	2819.36353    
435.0000      	22988.5057    	2984.81812    
435.5000      	22962.1125    	3199.63647    
436.0000      	22935.7798    	3189.54541    
436.5000      	22909.5074    	3203.00000    
437.0000      	22883.2952    	3254.72729    
437.5000      	22857.1429    	3391.90918    
438.0000      	22831.0502    	3423.27271    
438.5000      	22805.0171    	3554.00000    
439.0000      	22779.0433    	3717.27271    
439.5000      	22753.1286    	3818.00000    
440.0000      	22727.2727    	4197.81836    
440.5000      	22701.4756    	4121.90918    
441.0000      	22675.7370    	4379.00000    
441.5000      	22650.0566    	4269.54541    
442.0000      	22624.4344    	4412.72705    
442.5000      	22598.8701    	4715.18164    
443.0000      	22573.3634    	4710.09082    
443.5000      	22547.9143    	4901.81836    
444.0000      	22522.5225    	4985.09082    
444.5000      	22497.1879    	5228.54541    
445.0000      	22471.9101    	5560.09082    
445.5000      	22446.6891    	5450.00000    
446.0000      	22421.5247    	5705.54541    
446.5000      	22396.4166    	6146.27295    
447.0000      	22371.3647    	6190.72705    
447.5000      	22346.3687    	6289.09082    
448.0000      	22321.4286    	6585.72705    
448.5000      	22296.5440    	6757.27295    
449.0000      	22271.7149    	7106.63623    
449.5000      	22246.9410    	7331.54541    
450.0000      	22222.2222    	7539.09082    
450.5000      	22197.5583    	7742.90918    
451.0000      	22172.9490    	7786.00000    
451.5000      	22148.3942    	7980.18164    
452.0000      	22123.8938    	7929.54541    
452.5000      	22099.4475    	7896.54541    
453.0000      	22075.0552    	8177.36377    
453.5000      	22050.7166    	8357.63672    
454.0000      	22026.4317    	8603.09082    
454.5000      	22002.2002    	8686.81836    
455.0000      	21978.0220    	8958.54590    
455.5000      	21953.8968    	8913.72754    
456.0000      	21929.8246    	9246.81836    
456.5000      	21905.8050    	9577.90918    
457.0000      	21881.8381    	9787.00000    
457.5000      	21857.9235    	9812.09082    
458.0000      	21834.0611    	10016.09082   
458.5000      	21810.2508    	9754.72754    
459.0000      	21786.4924    	10001.18164   
459.5000      	21762.7856    	9985.09082    
460.0000      	21739.1304    	10254.27246   
460.5000      	21715.5266    	9929.36328    
461.0000      	21691.9740    	10062.63672   
461.5000      	21668.4724    	10036.54590   
462.0000      	21645.0216    	10154.00000   
462.5000      	21621.6216    	10150.00000   
463.0000      	21598.2721    	9804.18164    
463.5000      	21574.9730    	9692.09082    
464.0000      	21551.7241    	9538.63672    
464.5000      	21528.5253    	9773.18164    
465.0000      	21505.3763    	9992.09082    
465.5000      	21482.2771    	9484.81836    
466.0000      	21459.2275    	9942.27246    
466.5000      	21436.2272    	9184.63672    
467.0000      	21413.2762    	9268.81836    
467.5000      	21390.3743    	9275.54590    
468.0000      	21367.5214    	9081.18164    
468.5000      	21344.7172    	8783.00000    
469.0000      	21321.9616    	9104.54590    
469.5000      	21299.2545    	8716.45410    
470.0000      	21276.5957    	8615.09082    
470.5000      	21253.9851    	8695.90918    
471.0000      	21231.4225    	8515.90918    
471.5000      	21208.9077    	7959.27295    
472.0000      	21186.4407    	7804.09082    
472.5000      	21164.0212    	7833.00000    
473.0000      	21141.6490    	7794.45459    
473.5000      	21119.3242    	7401.63623    
474.0000      	21097.0464    	7491.63623    
474.5000      	21074.8156    	7114.63623    
475.0000      	21052.6316    	6731.90918    
475.5000      	21030.4942    	6794.18164    
476.0000      	21008.4034    	6501.45459    
476.5000      	20986.3589    	6469.18164    
477.0000      	20964.3606    	6408.54541    
477.5000      	20942.4084    	6279.54541    
478.0000      	20920.5021    	6193.09082    
478.5000      	20898.6416    	5982.45459    
479.0000      	20876.8267    	5808.81836    
479.5000      	20855.0574    	5757.27295    
480.0000      	20833.3333    	5755.63623    
480.5000      	20811.6545    	5597.72705    
481.0000      	20790.0208    	5558.45459    
481.5000      	20768.4320    	5292.72705    
482.0000      	20746.8880    	5322.27295    
482.5000      	20725.3886    	5393.72705    
483.0000      	20703.9337    	5169.18164    
483.5000      	20682.5233    	5118.00000    
484.0000      	20661.1570    	4938.45459    
484.5000      	20639.8349    	4741.90918    
485.0000      	20618.5567    	4716.18164    
485.5000      	20597.3223    	4687.36377    
486.0000      	20576.1317    	4546.18164    
486.5000      	20554.9846    	4200.63623    
487.0000      	20533.8809    	4142.45459    
487.5000      	20512.8205    	4014.63647    
488.0000      	20491.8033    	4146.45459    
488.5000      	20470.8291    	3839.45459    
489.0000      	20449.8978    	3703.00000    
489.5000      	20429.0092    	3765.27271    
490.0000      	20408.1633    	3660.45459    
490.5000      	20387.3598    	3520.09082    
491.0000      	20366.5988    	3449.72729    
491.5000      	20345.8800    	3507.00000    
492.0000      	20325.2033    	3317.36353    
492.5000      	20304.5685    	3209.36353    
493.0000      	20283.9757    	3365.27271    
493.5000      	20263.4245    	3090.81812    
494.0000      	20242.9150    	3159.18188    
494.5000      	20222.4469    	3181.63647    
495.0000      	20202.0202    	3069.18188    
495.5000      	20181.6347    	2937.72729    
496.0000      	20161.2903    	3020.54541    
496.5000      	20140.9869    	2946.90918    
497.0000      	20120.7243    	2866.54541    
497.5000      	20100.5025    	2966.90918    
498.0000      	20080.3213    	2792.27271    
498.5000      	20060.1805    	2686.81812    
499.0000      	20040.0802    	2898.18188    
499.5000      	20020.0200    	2756.81812    
500.0000      	20000.0000    	2597.63647    
500.5000      	19980.0200    	2630.72729    
501.0000      	19960.0798    	2622.54541    
501.5000      	19940.1795    	2519.54541    
502.0000      	19920.3187    	2543.36353    
502.5000      	19900.4975    	2412.18188    
503.0000      	19880.7157    	2327.63647    
503.5000      	19860.9732    	2381.36353    
504.0000      	19841.2698    	2357.18188    
504.5000      	19821.6056    	2444.54541    
505.0000      	19801.9802    	2365.81812    
505.5000      	19782.3937    	2243.18188    
506.0000      	19762.8458    	2282.00000    
506.5000      	19743.3366    	2170.63647    
507.0000      	19723.8659    	2267.09082    
507.5000      	19704.4335    	2319.45459    
508.0000      	19685.0394    	2312.54541    
508.5000      	19665.6834    	2128.63647    
509.0000      	19646.3654    	2217.63647    
509.5000      	19627.0854    	2359.36353    
510.0000      	19607.8431    	2429.09082    
510.5000      	19588.6386    	2177.00000    
511.0000      	19569.4716    	2123.54541    
511.5000      	19550.3421    	2282.09082    
512.0000      	19531.2500    	2296.54541    
512.5000      	19512.1951    	2062.54541    
513.0000      	19493.1774    	2066.54541    
513.5000      	19474.1967    	2059.09082    
514.0000      	19455.2529    	2140.18188    
514.5000      	19436.3460    	2083.27271    
515.0000      	19417.4757    	2058.18188    
515.5000      	19398.6421    	2190.72729    
516.0000      	19379.8450    	2039.81824    
516.5000      	19361.0842    	2060.63647    
517.0000      	19342.3598    	1992.45459    
517.5000      	19323.6715    	2074.81812    
518.0000      	19305.0193    	1979.81824    
518.5000      	19286.4031    	1960.09094    
519.0000      	19267.8227    	1885.54541    
519.5000      	19249.2782    	1986.63635    
520.0000      	19230.7692    	1980.09094    
520.5000      	19212.2959    	2004.45459    
521.0000      	19193.8580    	1994.81824    
521.5000      	19175.4554    	1932.81824    
522.0000      	19157.0881    	2014.54541    
522.5000      	19138.7560    	2020.54541    
523.0000      	19120.4589    	2011.90906    
523.5000      	19102.1968    	1949.09094    
524.0000      	19083.9695    	1949.90906    
524.5000      	19065.7769    	1945.18176    
525.0000      	19047.6190    	1982.00000    
525.5000      	19029.4957    	1869.36365    
526.0000      	19011.4068    	1870.45459    
526.5000      	18993.3523    	2111.18188    
527.0000      	18975.3321    	1913.63635    
527.5000      	18957.3460    	1822.81824    
528.0000      	18939.3939    	1987.81824    
528.5000      	18921.4759    	2043.45459    
529.0000      	18903.5917    	1923.18176    
529.5000      	18885.7413    	1948.63635    
530.0000      	18867.9245    	1920.81824    
530.5000      	18850.1414    	1886.90906    
531.0000      	18832.3917    	2016.00000    
531.5000      	18814.6754    	1933.54541    
532.0000      	18796.9925    	1993.81824    
532.5000      	18779.3427    	1944.09094    
533.0000      	18761.7261    	1927.09094    
533.5000      	18744.1425    	1896.63635    
534.0000      	18726.5918    	1982.18176    
534.5000      	18709.0739    	1877.54541    
535.0000      	18691.5888    	2002.90906    
535.5000      	18674.1363    	1884.90906    
536.0000      	18656.7164    	2006.36365    
536.5000      	18639.3290    	1914.90906    
537.0000      	18621.9739    	1900.81824    
537.5000      	18604.6512    	1939.45459    
538.0000      	18587.3606    	1887.63635    
538.5000      	18570.1021    	1879.54541    
539.0000      	18552.8757    	1915.00000    
539.5000      	18535.6812    	1968.63635    
540.0000      	18518.5185    	1823.90906    
540.5000      	18501.3876    	1884.00000    
541.0000      	18484.2884    	1946.72729    
541.5000      	18467.2207    	1927.18176    
542.0000      	18450.1845    	1991.72729    
542.5000      	18433.1797    	1831.81824    
543.0000      	18416.2063    	1965.36365    
543.5000      	18399.2640    	1983.45459    
544.0000      	18382.3529    	1892.09094    
544.5000      	18365.4729    	1843.90906    
545.0000      	18348.6239    	2006.36365    
545.5000      	18331.8057    	1931.09094    
546.0000      	18315.0183    	2037.54541    
546.5000      	18298.2617    	1905.36365    
547.0000      	18281.5356    	1923.18176    
547.5000      	18264.8402    	1919.54541    
548.0000      	18248.1752    	1944.09094    
548.5000      	18231.5406    	1874.81824    
549.0000      	18214.9362    	2002.90906    
549.5000      	18198.3621    	1983.45459    
550.0000      	18181.8182    	1912.27271    
550.5000      	18165.3043    	1939.18176    
551.0000      	18148.8203    	1814.27271    
551.5000      	18132.3663    	1907.36365    
552.0000      	18115.9420    	1858.90906    
552.5000      	18099.5475    	1884.54541    
553.0000      	18083.1826    	1799.45459    
553.5000      	18066.8473    	2095.45459    
554.0000      	18050.5415    	1980.27271    
554.5000      	18034.2651    	1926.54541    
555.0000      	18018.0180    	1845.54541    
555.5000      	18001.8002    	1867.81824    
556.0000      	17985.6115    	1829.27271    
556.5000      	17969.4519    	1808.54541    
557.0000      	17953.3214    	1871.81824    
557.5000      	17937.2197    	1896.63635    
558.0000      	17921.1470    	1908.72729    
558.5000      	17905.1030    	1876.36365    
559.0000      	17889.0877    	1905.09094    
559.5000      	17873.1010    	2051.00000    
560.0000      	17857.1429    	1998.27271    
560.5000      	17841.2132    	1880.72729    
561.0000      	17825.3119    	1986.36365    
561.5000      	17809.4390    	1797.54541    
562.0000      	17793.5943    	1963.27271    
562.5000      	17777.7778    	1953.54541    
563.0000      	17761.9893    	1891.00000    
563.5000      	17746.2289    	1828.09094    
564.0000      	17730.4965    	1986.72729    
564.5000      	17714.7919    	1941.00000    
565.0000      	17699.1150    	1830.45459    
565.5000      	17683.4660    	1796.27271    
566.0000      	17667.8445    	1999.72729    
566.5000      	17652.2507    	1843.54541    
567.0000      	17636.6843    	1845.63635    
567.5000      	17621.1454    	1875.90906    
568.0000      	17605.6338    	1911.81824    
568.5000      	17590.1495    	1867.27271    
569.0000      	17574.6924    	1921.09094    
569.5000      	17559.2625    	1905.54541    
570.0000      	17543.8596    	1871.27271    
570.5000      	17528.4838    	1820.45459    
571.0000      	17513.1349    	1873.00000    
571.5000      	17497.8128    	1956.63635    
572.0000      	17482.5175    	1851.27271    
572.5000      	17467.2489    	2038.36365    
573.0000      	17452.0070    	1808.45459    
573.5000      	17436.7916    	1929.18176    
574.0000      	17421.6028    	1848.36365    
574.5000      	17406.4404    	1860.09094    
575.0000      	17391.3043    	1887.18176    
575.5000      	17376.1946    	1867.54541    
576.0000      	17361.1111    	1942.45459    
576.5000      	17346.0538    	1857.81824    
577.0000      	17331.0225    	1832.18176    
577.5000      	17316.0173    	1790.00000    
578.0000      	17301.0381    	1926.27271    
578.5000      	17286.0847    	1886.00000    
579.0000      	17271.1572    	1966.81824    
579.5000      	17256.2554    	1867.81824    
580.0000      	17241.3793    	2224.45459    
580.5000      	17226.5289    	1992.90906    
581.0000      	17211.7040    	1933.63635    
581.5000      	17196.9046    	1796.27271    
582.0000      	17182.1306    	1917.63635    
582.5000      	17167.3820    	1922.27271    
583.0000      	17152.6587    	1864.45459    
583.5000      	17137.9606    	2009.18176    
584.0000      	17123.2877    	1843.09094    
584.5000      	17108.6399    	1801.36365    
585.0000      	17094.0171    	1836.90906    
585.5000      	17079.4193    	1793.54541    
586.0000      	17064.8464    	1892.00000    
586.5000      	17050.2984    	1836.36365    
587.0000      	17035.7751    	1861.27271    
587.5000      	17021.2766    	1865.81824    
588.0000      	17006.8027    	1966.45459    
588.5000      	16992.3534    	1934.81824    
589.0000      	16977.9287    	1944.00000    
589.5000      	16963.5284    	1933.63635    
590.0000      	16949.1525    	2073.09082    
590.5000      	16934.8010    	1964.54541    
591.0000      	16920.4738    	1901.36365    
591.5000      	16906.1708    	2000.90906    
592.0000      	16891.8919    	1878.09094    
592.5000      	16877.6371    	1963.54541    
593.0000      	16863.4064    	1869.72729    
593.5000      	16849.1997    	1923.09094    
594.0000      	16835.0168    	1830.36365    
594.5000      	16820.8579    	2116.63647    
595.0000      	16806.7227    	1900.81824    
595.5000      	16792.6113    	1821.81824    
596.0000      	16778.5235    	2033.54541    
596.5000      	16764.4593    	1958.54541    
597.0000      	16750.4188    	1881.27271    
597.5000      	16736.4017    	1868.45459    
598.0000      	16722.4080    	1987.81824    
598.5000      	16708.4378    	1997.27271    
599.0000      	16694.4908    	2021.90906    
599.5000      	16680.5671    	1894.00000    
600.0000      	16666.6667    	1942.54541    
600.5000      	16652.7893    	1947.54541    
601.0000      	16638.9351    	2009.63635    
601.5000      	16625.1039    	1884.72729    
602.0000      	16611.2957    	1855.63635    
602.5000      	16597.5104    	1867.18176    
603.0000      	16583.7479    	1882.45459    
603.5000      	16570.0083    	1849.45459    
604.0000      	16556.2914    	1847.63635    
604.5000      	16542.5972    	2000.00000    
605.0000      	16528.9256    	2016.45459    
605.5000      	16515.2766    	1906.81824    
606.0000      	16501.6502    	1865.81824    
606.5000      	16488.0462    	1884.54541    
607.0000      	16474.4646    	1882.27271    
607.5000      	16460.9053    	1959.45459    
608.0000      	16447.3684    	2065.45459    
608.5000      	16433.8537    	1923.09094    
609.0000      	16420.3612    	2032.00000    
609.5000      	16406.8909    	1861.00000    
610.0000      	16393.4426    	1969.72729    
610.5000      	16380.0164    	2099.36353    
611.0000      	16366.6121    	1822.09094    
611.5000      	16353.2298    	1904.54541    
612.0000      	16339.8693    	1891.54541    
612.5000      	16326.5306    	2000.09094    
613.0000      	16313.2137    	1847.00000    
613.5000      	16299.9185    	2020.63635    
614.0000      	16286.6450    	1889.00000    
614.5000      	16273.3930    	1943.81824    
615.0000      	16260.1626    	1894.09094    
615.5000      	16246.9537    	1842.63635    
616.0000      	16233.7662    	1886.09094    
616.5000      	16220.6002    	1826.72729    
617.0000      	16207.4554    	1913.81824    
617.5000      	16194.3320    	1865.63635    
618.0000      	16181.2298    	1791.18176    
618.5000      	16168.1487    	1960.54541    
619.0000      	16155.0889    	1926.27271    
619.5000      	16142.0500    	1851.72729    
620.0000      	16129.0323    	1899.72729    
620.5000      	16116.0355    	2007.54541    
621.0000      	16103.0596    	1880.81824    
621.5000      	16090.1046    	1791.36365    
622.0000      	16077.1704    	1845.90906    
622.5000      	16064.2570    	1984.18176    
623.0000      	16051.3644    	1886.18176    
623.5000      	16038.4924    	1865.54541    
624.0000      	16025.6410    	1933.09094    
624.5000      	16012.8102    	2097.09082    
625.0000      	16000.0000    	1940.27271    
625.5000      	15987.2102    	1866.90906    
626.0000      	15974.4409    	1937.18176    
626.5000      	15961.6919    	1854.18176    
627.0000      	15948.9633    	1939.27271    
627.5000      	15936.2550    	1960.09094    
628.0000      	15923.5669    	1990.63635    
628.5000      	15910.8990    	1810.09094    
629.0000      	15898.2512    	1916.81824    
629.5000      	15885.6235    	1804.27271    
630.0000      	15873.0159    	1801.54541    
630.5000      	15860.4282    	1903.63635    
631.0000      	15847.8605    	1898.27271    
631.5000      	15835.3127    	1866.72729    
632.0000      	15822.7848    	1906.72729    
632.5000      	15810.2767    	1909.81824    
633.0000      	15797.7883    	1869.54541    
633.5000      	15785.3197    	1767.54541    
634.0000      	15772.8707    	1978.81824    
634.5000      	15760.4413    	1964.18176    
635.0000      	15748.0315    	1879.72729    
635.5000      	15735.6412    	2002.18176    
636.0000      	15723.2704    	1951.27271    
636.5000      	15710.9191    	1889.00000    
637.0000      	15698.5871    	2024.63635    
637.5000      	15686.2745    	1978.09094    
638.0000      	15673.9812    	1918.72729    
638.5000      	15661.7071    	1853.72729    
639.0000      	15649.4523    	1985.18176    
639.5000      	15637.2166    	1949.36365    
640.0000      	15625.0000    	2033.27271    
640.5000      	15612.8025    	1982.72729    
641.0000      	15600.6240    	1908.45459    
641.5000      	15588.4645    	1950.72729    
642.0000      	15576.3240    	1798.81824    
642.5000      	15564.2023    	1964.81824    
643.0000      	15552.0995    	1800.72729    
643.5000      	15540.0155    	1802.54541    
644.0000      	15527.9503    	1842.81824    
644.5000      	15515.9038    	1909.81824    
645.0000      	15503.8760    	1844.63635    
645.5000      	15491.8668    	1920.54541    
646.0000      	15479.8762    	1865.18176    
646.5000      	15467.9041    	1912.09094    
647.0000      	15455.9505    	1830.36365    
647.5000      	15444.0154    	1913.36365    
648.0000      	15432.0988    	1933.00000    
648.5000      	15420.2005    	1996.90906    
649.0000      	15408.3205    	1904.45459    
649.5000      	15396.4588    	1974.90906    
650.0000      	15384.6154    	1893.18176    
650.5000      	15372.7902    	1870.63635    
651.0000      	15360.9831    	1862.81824    
651.5000      	15349.1942    	1792.81824    
652.0000      	15337.4233    	2012.27271    
652.5000      	15325.6705    	1879.36365    
653.0000      	15313.9357    	1825.18176    
653.5000      	15302.2188    	1875.81824    
654.0000      	15290.5199    	1857.72729    
654.5000      	15278.8388    	1800.54541    
655.0000      	15267.1756    	1779.36365    
655.5000      	15255.5301    	1889.36365    
656.0000      	15243.9024    	1901.54541    
656.5000      	15232.2925    	1844.63635    
657.0000      	15220.7002    	1803.45459    
657.5000      	15209.1255    	2047.18176    
658.0000      	15197.5684    	1903.09094    
658.5000      	15186.0289    	1853.27271    
659.0000      	15174.5068    	1824.54541    
659.5000      	15163.0023    	1950.63635    
660.0000      	15151.5152    	1809.00000    
660.5000      	15140.0454    	1852.81824    
661.0000      	15128.5930    	1976.27271    
661.5000      	15117.1580    	2012.27271    
662.0000      	15105.7402    	1955.63635    
662.5000      	15094.3396    	2008.18176    
663.0000      	15082.9563    	1914.72729    
663.5000      	15071.5901    	1893.54541    
664.0000      	15060.2410    	1890.09094    
664.5000      	15048.9090    	1839.09094    
665.0000      	15037.5940    	1947.27271    
665.5000      	15026.2960    	1914.63635    
666.0000      	15015.0150    	1919.63635    
666.5000      	15003.7509    	1908.63635    
667.0000      	14992.5037    	1917.00000    
667.5000      	14981.2734    	1993.54541    
668.0000      	14970.0599    	1941.09094    
668.5000      	14958.8631    	1838.18176    
669.0000      	14947.6831    	1886.63635    
669.5000      	14936.5198    	1812.36365    
670.0000      	14925.3731    	1854.72729    
670.5000      	14914.2431    	1931.63635    
671.0000      	14903.1297    	1971.63635    
671.5000      	14892.0328    	1868.18176    
672.0000      	14880.9524    	1863.63635    
672.5000      	14869.8885    	1840.27271    
673.0000      	14858.8410    	1876.36365    
673.5000      	14847.8099    	1866.81824    
674.0000      	14836.7953    	1939.27271    
674.5000      	14825.7969    	2071.18188    
675.0000      	14814.8148    	2026.54541    
675.5000      	14803.8490    	1913.09094    
676.0000      	14792.8994    	1915.00000    
676.5000      	14781.9660    	1966.54541    
677.0000      	14771.0487    	2050.36353    
677.5000      	14760.1476    	1941.18176    
678.0000      	14749.2625    	1950.09094    
678.5000      	14738.3935    	1960.90906    
679.0000      	14727.5405    	2111.09082    
679.5000      	14716.7035    	1984.18176    
680.0000      	14705.8824    	1945.90906    
680.5000      	14695.0771    	1851.54541    
681.0000      	14684.2878    	1848.63635    
681.5000      	14673.5143    	1964.72729    
682.0000      	14662.7566    	1922.36365    
682.5000      	14652.0147    	1996.36365    
683.0000      	14641.2884    	1884.81824    
683.5000      	14630.5779    	1936.45459    
684.0000      	14619.8830    	1888.18176    
684.5000      	14609.2038    	1943.18176    
685.0000      	14598.5401    	1911.18176    
685.5000      	14587.8920    	1823.63635    
686.0000      	14577.2595    	1905.09094    
686.5000      	14566.6424    	1839.36365    
687.0000      	14556.0408    	1809.45459    
687.5000      	14545.4545    	1772.54541    
688.0000      	14534.8837    	2003.18176    
688.5000      	14524.3282    	2156.54541    
689.0000      	14513.7881    	1878.00000    
689.5000      	14503.2632    	1868.09094    
690.0000      	14492.7536    	2050.18188    
690.5000      	14482.2592    	1845.00000    
691.0000      	14471.7800    	1933.00000    
691.5000      	14461.3160    	1865.00000    
692.0000      	14450.8671    	1902.45459    
692.5000      	14440.4332    	2154.90918    
693.0000      	14430.0144    	1995.09094    
693.5000      	14419.6107    	1897.81824    
694.0000      	14409.2219    	2072.90918    
694.5000      	14398.8481    	1912.54541    
695.0000      	14388.4892    	1895.45459    
695.5000      	14378.1452    	1893.36365    
696.0000      	14367.8161    	1827.90906    
696.5000      	14357.5018    	1952.81824    
697.0000      	14347.2023    	1894.90906    
697.5000      	14336.9176    	1912.18176    
698.0000      	14326.6476    	1986.72729    
698.5000      	14316.3923    	1972.63635    
699.0000      	14306.1516    	1955.27271    
699.5000      	14295.9257    	1921.81824    
700.0000      	14285.7143    	1899.45459    
700.5000      	14275.5175    	1956.90906    
701.0000      	14265.3352    	2085.72729    
701.5000      	14255.1675    	1886.90906    
702.0000      	14245.0142    	1916.81824    
702.5000      	14234.8754    	1887.81824    
703.0000      	14224.7511    	1863.63635    
703.5000      	14214.6411    	1837.18176    
704.0000      	14204.5455    	1780.90906    
704.5000      	14194.4642    	1958.54541    
705.0000      	14184.3972    	1971.00000    
705.5000      	14174.3444    	1899.00000    
706.0000      	14164.3059    	2023.36365    
706.5000      	14154.2817    	1999.18176    
707.0000      	14144.2716    	1946.81824    
707.5000      	14134.2756    	1924.36365    
708.0000      	14124.2938    	1911.45459    
708.5000      	14114.3260    	1894.36365    
709.0000      	14104.3724    	1951.54541    
709.5000      	14094.4327    	2096.81812    
710.0000      	14084.5070    	1903.18176    
710.5000      	14074.5954    	1923.90906    
711.0000      	14064.6976    	1984.36365    
711.5000      	14054.8138    	2004.18176    
712.0000      	14044.9438    	1948.36365    
712.5000      	14035.0877    	1960.00000    
713.0000      	14025.2454    	1891.90906    
713.5000      	14015.4170    	2082.63647    
714.0000      	14005.6022    	1982.54541    
714.5000      	13995.8013    	2050.90918    
715.0000      	13986.0140    	1854.81824    
715.5000      	13976.2404    	1884.27271    
716.0000      	13966.4804    	1956.72729    
716.5000      	13956.7341    	1939.45459    
717.0000      	13947.0014    	1966.81824    
717.5000      	13937.2822    	1889.81824    
718.0000      	13927.5766    	1931.09094    
718.5000      	13917.8845    	1924.54541    
719.0000      	13908.2058    	1877.18176    
719.5000      	13898.5407    	1950.54541    
720.0000      	13888.8889    	2035.00000    
720.5000      	13879.2505    	1952.18176    
721.0000      	13869.6255    	1924.36365    
721.5000      	13860.0139    	1907.18176    
722.0000      	13850.4155    	1946.54541    
722.5000      	13840.8304    	1761.18176    
723.0000      	13831.2586    	1895.09094    
723.5000      	13821.7001    	1865.54541    
724.0000      	13812.1547    	1838.90906    
724.5000      	13802.6225    	1809.09094    
725.0000      	13793.1034    	1897.45459    
725.5000      	13783.5975    	1876.36365    
726.0000      	13774.1047    	1870.54541    
726.5000      	13764.6249    	1955.72729    
727.0000      	13755.1582    	1850.63635    
727.5000      	13745.7045    	1891.00000    
728.0000      	13736.2637    	1938.81824    
728.5000      	13726.8360    	1927.36365    
729.0000      	13717.4211    	1976.18176    
729.5000      	13708.0192    	1953.36365    
730.0000      	13698.6301    	1965.90906    
730.5000      	13689.2539    	1952.09094    
731.0000      	13679.8906    	1966.45459    
731.5000      	13670.5400    	1952.00000    
732.0000      	13661.2022    	1911.00000    
732.5000      	13651.8771    	2002.90906    
733.0000      	13642.5648    	1932.18176    
733.5000      	13633.2652    	1990.00000    
734.0000      	13623.9782    	1964.90906    
734.5000      	13614.7039    	1886.18176    
735.0000      	13605.4422    	1978.45459    
735.5000      	13596.1931    	1887.63635    
736.0000      	13586.9565    	1949.45459    
736.5000      	13577.7325    	2013.90906    
737.0000      	13568.5210    	1977.09094    
737.5000      	13559.3220    	1869.54541    
738.0000      	13550.1355    	1916.90906    
738.5000      	13540.9614    	1886.36365    
739.0000      	13531.7997    	1809.36365    
739.5000      	13522.6504    	1852.72729    
740.0000      	13513.5135    	1857.54541    
740.5000      	13504.3889    	1764.36365    
741.0000      	13495.2767    	1889.72729    
741.5000      	13486.1767    	2035.36365    
742.0000      	13477.0889    	2110.45459    
742.5000      	13468.0135    	1859.09094    
743.0000      	13458.9502    	1891.72729    
743.5000      	13449.8991    	1932.09094    
744.0000      	13440.8602    	1913.45459    
744.5000      	13431.8334    	1958.36365    
745.0000      	13422.8188    	1910.45459    
745.5000      	13413.8162    	1829.00000    
746.0000      	13404.8257    	1852.54541    
746.5000      	13395.8473    	1916.72729    
747.0000      	13386.8809    	1830.00000    
747.5000      	13377.9264    	1956.81824    
748.0000      	13368.9840    	1869.36365    
748.5000      	13360.0534    	1926.90906    
749.0000      	13351.1348    	1868.00000    
749.5000      	13342.2282    	1844.09094    
750.0000      	13333.3333    	1864.18176    
750.5000      	13324.4504    	1935.45459    
751.0000      	13315.5792    	1958.00000    
751.5000      	13306.7199    	2015.09094    
752.0000      	13297.8723    	2062.90918    
752.5000      	13289.0365    	2077.81812    
753.0000      	13280.2125    	2123.45459    
753.5000      	13271.4001    	2001.72729    
754.0000      	13262.5995    	1920.36365    
754.5000      	13253.8105    	1988.72729    
755.0000      	13245.0331    	1932.72729    
755.5000      	13236.2674    	1881.27271    
756.0000      	13227.5132    	1933.63635    
756.5000      	13218.7707    	1989.00000    
757.0000      	13210.0396    	1927.90906    
757.5000      	13201.3201    	1891.36365    
758.0000      	13192.6121    	1963.72729    
758.5000      	13183.9156    	1980.45459    
759.0000      	13175.2306    	2074.63647    
759.5000      	13166.5569    	1852.81824    
760.0000      	13157.8947    	1944.81824    
760.5000      	13149.2439    	2100.72729    
761.0000      	13140.6045    	1852.45459    
761.5000      	13131.9764    	2006.63635    
762.0000      	13123.3596    	1919.00000    
762.5000      	13114.7541    	1914.90906    
763.0000      	13106.1599    	1891.00000    
763.5000      	13097.5769    	1944.63635    
764.0000      	13089.0052    	1910.27271    
764.5000      	13080.4447    	1817.54541    
765.0000      	13071.8954    	1862.81824    
765.5000      	13063.3573    	1934.81824    
766.0000      	13054.8303    	1972.18176    
766.5000      	13046.3144    	1987.18176    
767.0000      	13037.8096    	1931.00000    
767.5000      	13029.3160    	1801.27271    
768.0000      	13020.8333    	1938.54541    
768.5000      	13012.3617    	2012.18176    
769.0000      	13003.9012    	1966.90906    
769.5000      	12995.4516    	1967.36365    
770.0000      	12987.0130    	1947.36365    
770.5000      	12978.5853    	1934.54541    
771.0000      	12970.1686    	2010.27271    
771.5000      	12961.7628    	2109.63647    
772.0000      	12953.3679    	1903.45459    
772.5000      	12944.9838    	1881.54541    
773.0000      	12936.6106    	1936.27271    
773.5000      	12928.2482    	1959.18176    
774.0000      	12919.8966    	1943.81824    
774.5000      	12911.5558    	1895.90906    
775.0000      	12903.2258    	1931.45459    
775.5000      	12894.9065    	1941.09094    
776.0000      	12886.5979    	1937.90906    
776.5000      	12878.3001    	1872.00000    
777.0000      	12870.0129    	1894.18176    
777.5000      	12861.7363    	1848.45459    
778.0000      	12853.4704    	1917.72729    
778.5000      	12845.2152    	2040.18176    
779.0000      	12836.9705    	1995.18176    
779.5000      	12828.7364    	2021.00000    
780.0000      	12820.5128    	1882.54541    
780.5000      	12812.2998    	1845.00000    
781.0000      	12804.0973    	1864.18176    
781.5000      	12795.9053    	1971.00000    
782.0000      	12787.7238    	1935.54541    
782.5000      	12779.5527    	1874.09094    
783.0000      	12771.3921    	1831.27271    
783.5000      	12763.2419    	1883.09094    
784.0000      	12755.1020    	1872.18176    
784.5000      	12746.9726    	2037.27271    
785.0000      	12738.8535    	1910.36365    
785.5000      	12730.7447    	1904.18176    
786.0000      	12722.6463    	1873.63635    
786.5000      	12714.5582    	1872.00000    
787.0000      	12706.4803    	2005.09094    
787.5000      	12698.4127    	1915.45459    
788.0000      	12690.3553    	2046.81824    
788.5000      	12682.3082    	1947.81824    
789.0000      	12674.2712    	1988.09094    
789.5000      	12666.2445    	1951.36365    
790.0000      	12658.2278    	1912.54541    
790.5000      	12650.2214    	1916.36365    
791.0000      	12642.2250    	1861.81824    
791.5000      	12634.2388    	1881.27271    
792.0000      	12626.2626    	1975.90906    
792.5000      	12618.2965    	1950.90906    
793.0000      	12610.3405    	1920.09094    
793.5000      	12602.3945    	1850.45459    
794.0000      	12594.4584    	1980.36365    
794.5000      	12586.5324    	1980.45459    
795.0000      	12578.6164    	2009.09094    
795.5000      	12570.7102    	1979.45459    
796.0000      	12562.8141    	1879.27271    
796.5000      	12554.9278    	1875.00000    
797.0000      	12547.0514    	1971.09094    
797.5000      	12539.1850    	1922.09094    
798.0000      	12531.3283    	1928.72729    
798.5000      	12523.4815    	1892.63635    
799.0000      	12515.6446    	1848.81824    
799.5000      	12507.8174    	1972.54541    
800.0000      	12500.0000    	2034.00000    
