Unit Serial No : 240-LV0P465-EU
Integration Time : 113 ms
Time Average: 11
Binning Average: 0
FFT Smoothing: 0%
Project Name : Project Name
Sample Name : Sample Name
Measurement No : 1
Measurement Time : 09/18/2007   09:21:54

Wavelength(nm)	Wavenumber(1/cm)	Intensity(Counts)
350.0000      	28571.4286    	2116.45459    
350.5000      	28530.6705    	2081.00000    
351.0000      	28490.0285    	2023.09094    
351.5000      	28449.5021    	2068.18188    
352.0000      	28409.0909    	2040.27271    
352.5000      	28368.7943    	2027.27271    
353.0000      	28328.6119    	1986.90906    
353.5000      	28288.5431    	2065.18188    
354.0000      	28248.5876    	1942.90906    
354.5000      	28208.7447    	1921.81824    
355.0000      	28169.0141    	1976.18176    
355.5000      	28129.3952    	2012.90906    
356.0000      	28089.8876    	1861.63635    
356.5000      	28050.4909    	1944.54541    
357.0000      	28011.2045    	1935.72729    
357.5000      	27972.0280    	1963.00000    
358.0000      	27932.9609    	1969.36365    
358.5000      	27894.0028    	2159.90918    
359.0000      	27855.1532    	1983.09094    
359.5000      	27816.4117    	2026.72729    
360.0000      	27777.7778    	1993.00000    
360.5000      	27739.2510    	2029.54541    
361.0000      	27700.8310    	1995.27271    
361.5000      	27662.5173    	2121.63647    
362.0000      	27624.3094    	2017.72729    
362.5000      	27586.2069    	2091.27271    
363.0000      	27548.2094    	2092.00000    
363.5000      	27510.3164    	1931.63635    
364.0000      	27472.5275    	1829.63635    
364.5000      	27434.8422    	1895.00000    
365.0000      	27397.2603    	1982.63635    
365.5000      	27359.7811    	2036.45459    
366.0000      	27322.4044    	2034.81824    
366.5000      	27285.1296    	2006.18176    
367.0000      	27247.9564    	1981.36365    
367.5000      	27210.8844    	2118.27271    
368.0000      	27173.9130    	1996.90906    
368.5000      	27137.0421    	2142.90918    
369.0000      	27100.2710    	2019.00000    
369.5000      	27063.5995    	1978.09094    
370.0000      	27027.0270    	2136.54541    
370.5000      	26990.5533    	1891.63635    
371.0000      	26954.1779    	2032.27271    
371.5000      	26917.9004    	1952.27271    
372.0000      	26881.7204    	1943.18176    
372.5000      	26845.6376    	2037.90906    
373.0000      	26809.6515    	1950.27271    
373.5000      	26773.7617    	2007.81824    
374.0000      	26737.9679    	2145.36353    
374.5000      	26702.2697    	2022.09094    
375.0000      	26666.6667    	1956.27271    
375.5000      	26631.1585    	1991.72729    
376.0000      	26595.7447    	2004.27271    
376.5000      	26560.4250    	1927.36365    
377.0000      	26525.1989    	2009.27271    
377.5000      	26490.0662    	2021.81824    
378.0000      	26455.0265    	1995.45459    
378.5000      	26420.0793    	1988.36365    
379.0000      	26385.2243    	1999.72729    
379.5000      	26350.4611    	2026.09094    
380.0000      	26315.7895    	1975.90906    
380.5000      	26281.2089    	1985.81824    
381.0000      	26246.7192    	2001.00000    
381.5000      	26212.3198    	1935.36365    
382.0000      	26178.0105    	2010.00000    
382.5000      	26143.7908    	2056.45459    
383.0000      	26109.6606    	2080.45459    
383.5000      	26075.6193    	2006.81824    
384.0000      	26041.6667    	2165.54541    
384.5000      	26007.8023    	1996.72729    
385.0000      	25974.0260    	1988.72729    
385.5000      	25940.3372    	1978.18176    
386.0000      	25906.7358    	1919.45459    
386.5000      	25873.2212    	1994.00000    
387.0000      	25839.7933    	2040.27271    
387.5000      	25806.4516    	1970.18176    
388.0000      	25773.1959    	2064.18188    
388.5000      	25740.0257    	2065.45459    
389.0000      	25706.9409    	2020.72729    
389.5000      	25673.9409    	2071.36353    
390.0000      	25641.0256    	2023.54541    
390.5000      	25608.1946    	2006.45459    
391.0000      	25575.4476    	2023.63635    
391.5000      	25542.7842    	2132.36353    
392.0000      	25510.2041    	1973.63635    
392.5000      	25477.7070    	1984.81824    
393.0000      	25445.2926    	2100.54541    
393.5000      	25412.9606    	1978.63635    
394.0000      	25380.7107    	2128.09082    
394.5000      	25348.5425    	1955.36365    
395.0000      	25316.4557    	2065.63647    
395.5000      	25284.4501    	1980.72729    
396.0000      	25252.5253    	2148.09082    
396.5000      	25220.6810    	2037.81824    
397.0000      	25188.9169    	2086.45459    
397.5000      	25157.2327    	2093.90918    
398.0000      	25125.6281    	2055.18188    
398.5000      	25094.1029    	2014.36365    
399.0000      	25062.6566    	2092.90918    
399.5000      	25031.2891    	2158.81812    
400.0000      	25000.0000    	2127.45459    
400.5000      	24968.7890    	2023.81824    
401.0000      	24937.6559    	2001.45459    
401.5000      	24906.6002    	2109.90918    
402.0000      	24875.6219    	2197.81812    
402.5000      	24844.7205    	2049.36353    
403.0000      	24813.8958    	1929.54541    
403.5000      	24783.1475    	2066.00000    
404.0000      	24752.4752    	2056.18188    
404.5000      	24721.8789    	2140.09082    
405.0000      	24691.3580    	2064.81812    
405.5000      	24660.9125    	2026.72729    
406.0000      	24630.5419    	2014.54541    
406.5000      	24600.2460    	2007.45459    
407.0000      	24570.0246    	2126.36353    
407.5000      	24539.8773    	2002.36365    
408.0000      	24509.8039    	2006.27271    
408.5000      	24479.8042    	2037.81824    
409.0000      	24449.8778    	2021.27271    
409.5000      	24420.0244    	2124.54541    
410.0000      	24390.2439    	2111.90918    
410.5000      	24360.5359    	2237.63647    
411.0000      	24330.9002    	2180.72729    
411.5000      	24301.3366    	2182.90918    
412.0000      	24271.8447    	2246.63647    
412.5000      	24242.4242    	2115.09082    
413.0000      	24213.0751    	2243.18188    
413.5000      	24183.7969    	2195.90918    
414.0000      	24154.5894    	2192.90918    
414.5000      	24125.4524    	2184.90918    
415.0000      	24096.3855    	2150.27271    
415.5000      	24067.3887    	2230.18188    
416.0000      	24038.4615    	2247.36353    
416.5000      	24009.6038    	2214.18188    
417.0000      	23980.8153    	2293.90918    
417.5000      	23952.0958    	2339.72729    
418.0000      	23923.4450    	2446.45459    
418.5000      	23894.8626    	2429.81812    
419.0000      	23866.3484    	2484.36353    
419.5000      	23837.9023    	2447.27271    
420.0000      	23809.5238    	2551.45459    
420.5000      	23781.2128    	2653.90918    
421.0000      	23752.9691    	2637.45459    
421.5000      	23724.7924    	2664.18188    
422.0000      	23696.6825    	2800.81812    
422.5000      	23668.6391    	2835.90918    
423.0000      	23640.6619    	2933.54541    
423.5000      	23612.7509    	2917.18188    
424.0000      	23584.9057    	3132.27271    
424.5000      	23557.1260    	3314.72729    
425.0000      	23529.4118    	3362.63647    
425.5000      	23501.7626    	3370.63647    
426.0000      	23474.1784    	3475.00000    
426.5000      	23446.6589    	3640.00000    
427.0000      	23419.2037    	3809.36353    
427.5000      	23391.8129    	4086.36353    
428.0000      	23364.4860    	4191.81836    
428.5000      	23337.2229    	4305.63623    
429.0000      	23310.0233    	4826.45459    
429.5000      	23282.8871    	4888.27295    
430.0000      	23255.8140    	4919.36377    
430.5000      	23228.8037    	5114.00000    
431.0000      	23201.8561    	5366.90918    
431.5000      	23174.9710    	5524.09082    
432.0000      	23148.1481    	5865.00000    
432.5000      	23121.3873    	6260.63623    
433.0000      	23094.6882    	6494.81836    
433.5000      	23068.0507    	6821.00000    
434.0000      	23041.4747    	7335.00000    
434.5000      	23014.9597    	7708.45459    
435.0000      	22988.5057    	8454.27246    
435.5000      	22962.1125    	9141.81836    
436.0000      	22935.7798    	9510.90918    
436.5000      	22909.5074    	9945.00000    
437.0000      	22883.2952    	10371.54590   
437.5000      	22857.1429    	11320.00000   
438.0000      	22831.0502    	11877.27246   
438.5000      	22805.0171    	12626.90918   
439.0000      	22779.0433    	13366.27246   
439.5000      	22753.1286    	14351.72754   
440.0000      	22727.2727    	14801.18164   
440.5000      	22701.4756    	15284.45410   
441.0000      	22675.7370    	16141.00000   
441.5000      	22650.0566    	16603.45508   
442.0000      	22624.4344    	17689.18164   
442.5000      	22598.8701    	18377.36328   
443.0000      	22573.3634    	19040.36328   
443.5000      	22547.9143    	20301.18164   
444.0000      	22522.5225    	20722.72656   
444.5000      	22497.1879    	21843.72656   
445.0000      	22471.9101    	23621.00000   
445.5000      	22446.6891    	24300.45508   
446.0000      	22421.5247    	25719.09180   
446.5000      	22396.4166    	27701.36328   
447.0000      	22371.3647    	28559.27344   
447.5000      	22346.3687    	28543.27344   
448.0000      	22321.4286    	30223.36328   
448.5000      	22296.5440    	31801.90820   
449.0000      	22271.7149    	33317.63672   
449.5000      	22246.9410    	34225.81641   
450.0000      	22222.2222    	36559.08984   
450.5000      	22197.5583    	36979.91016   
451.0000      	22172.9490    	37215.63672   
451.5000      	22148.3942    	38506.54688   
452.0000      	22123.8938    	38734.91016   
452.5000      	22099.4475    	38621.45313   
453.0000      	22075.0552    	40100.72656   
453.5000      	22050.7166    	41159.00000   
454.0000      	22026.4317    	43189.81641   
454.5000      	22002.2002    	43443.08984   
455.0000      	21978.0220    	44637.18359   
455.5000      	21953.8968    	44040.63672   
456.0000      	21929.8246    	46277.08984   
456.5000      	21905.8050    	47802.54688   
457.0000      	21881.8381    	49081.63672   
457.5000      	21857.9235    	49212.54688   
458.0000      	21834.0611    	50520.81641   
458.5000      	21810.2508    	49594.91016   
459.0000      	21786.4924    	50009.72656   
459.5000      	21762.7856    	50660.72656   
460.0000      	21739.1304    	51892.63672   
460.5000      	21715.5266    	50459.08984   
461.0000      	21691.9740    	50748.54688   
461.5000      	21668.4724    	50139.63672   
462.0000      	21645.0216    	51385.45313   
462.5000      	21621.6216    	51797.45313   
463.0000      	21598.2721    	49844.27344   
463.5000      	21574.9730    	49141.08984   
464.0000      	21551.7241    	48463.36328   
464.5000      	21528.5253    	49187.63672   
465.0000      	21505.3763    	50654.54688   
465.5000      	21482.2771    	48200.63672   
466.0000      	21459.2275    	48721.45313   
466.5000      	21436.2272    	46592.72656   
467.0000      	21413.2762    	46736.91016   
467.5000      	21390.3743    	46428.08984   
468.0000      	21367.5214    	45534.81641   
468.5000      	21344.7172    	43796.00000   
469.0000      	21321.9616    	44858.72656   
469.5000      	21299.2545    	43120.63672   
470.0000      	21276.5957    	43022.91016   
470.5000      	21253.9851    	42736.91016   
471.0000      	21231.4225    	42049.63672   
471.5000      	21208.9077    	39768.91016   
472.0000      	21186.4407    	38900.81641   
472.5000      	21164.0212    	38312.36328   
473.0000      	21141.6490    	37996.00000   
473.5000      	21119.3242    	35971.45313   
474.0000      	21097.0464    	35599.91016   
474.5000      	21074.8156    	34071.45313   
475.0000      	21052.6316    	32536.27344   
475.5000      	21030.4942    	32206.81836   
476.0000      	21008.4034    	30679.09180   
476.5000      	20986.3589    	30246.54492   
477.0000      	20964.3606    	29414.45508   
477.5000      	20942.4084    	28399.90820   
478.0000      	20920.5021    	27857.18164   
478.5000      	20898.6416    	27031.45508   
479.0000      	20876.8267    	26031.63672   
479.5000      	20855.0574    	25902.27344   
480.0000      	20833.3333    	25851.09180   
480.5000      	20811.6545    	25075.36328   
481.0000      	20790.0208    	24558.63672   
481.5000      	20768.4320    	23353.09180   
482.0000      	20746.8880    	23176.72656   
482.5000      	20725.3886    	22883.72656   
483.0000      	20703.9337    	22148.27344   
483.5000      	20682.5233    	21565.36328   
484.0000      	20661.1570    	20512.27344   
484.5000      	20639.8349    	19666.18164   
485.0000      	20618.5567    	19388.18164   
485.5000      	20597.3223    	18529.81836   
486.0000      	20576.1317    	17634.72656   
486.5000      	20554.9846    	16661.18164   
487.0000      	20533.8809    	15867.63672   
487.5000      	20512.8205    	15113.00000   
488.0000      	20491.8033    	14958.36328   
488.5000      	20470.8291    	14065.54590   
489.0000      	20449.8978    	13448.54590   
489.5000      	20429.0092    	12988.63672   
490.0000      	20408.1633    	12562.90918   
490.5000      	20387.3598    	11953.72754   
491.0000      	20366.5988    	11676.81836   
491.5000      	20345.8800    	11306.63672   
492.0000      	20325.2033    	10808.18164   
492.5000      	20304.5685    	10403.72754   
493.0000      	20283.9757    	10197.00000   
493.5000      	20263.4245    	9761.18164    
494.0000      	20242.9150    	9577.54590    
494.5000      	20222.4469    	9350.27246    
495.0000      	20202.0202    	9007.63672    
495.5000      	20181.6347    	8594.72754    
496.0000      	20161.2903    	8435.72754    
496.5000      	20140.9869    	8271.45410    
497.0000      	20120.7243    	7940.90918    
497.5000      	20100.5025    	7785.90918    
498.0000      	20080.3213    	7386.27295    
498.5000      	20060.1805    	7096.45459    
499.0000      	20040.0802    	7105.18164    
499.5000      	20020.0200    	6832.27295    
500.0000      	20000.0000    	6454.63623    
500.5000      	19980.0200    	6237.18164    
501.0000      	19960.0798    	6016.45459    
501.5000      	19940.1795    	5698.72705    
502.0000      	19920.3187    	5635.18164    
502.5000      	19900.4975    	5333.09082    
503.0000      	19880.7157    	5070.81836    
503.5000      	19860.9732    	4931.54541    
504.0000      	19841.2698    	4745.00000    
504.5000      	19821.6056    	4733.45459    
505.0000      	19801.9802    	4605.27295    
505.5000      	19782.3937    	4371.72705    
506.0000      	19762.8458    	4236.90918    
506.5000      	19743.3366    	4064.63647    
507.0000      	19723.8659    	4073.90918    
507.5000      	19704.4335    	4069.63647    
508.0000      	19685.0394    	4009.36353    
508.5000      	19665.6834    	3749.54541    
509.0000      	19646.3654    	3752.45459    
509.5000      	19627.0854    	3852.27271    
510.0000      	19607.8431    	3891.27271    
510.5000      	19588.6386    	3594.09082    
511.0000      	19569.4716    	3482.18188    
511.5000      	19550.3421    	3548.36353    
512.0000      	19531.2500    	3542.45459    
512.5000      	19512.1951    	3239.90918    
513.0000      	19493.1774    	3220.18188    
513.5000      	19474.1967    	3150.27271    
514.0000      	19455.2529    	3165.36353    
514.5000      	19436.3460    	3070.00000    
515.0000      	19417.4757    	2990.45459    
515.5000      	19398.6421    	3089.00000    
516.0000      	19379.8450    	2890.00000    
516.5000      	19361.0842    	2880.54541    
517.0000      	19342.3598    	2764.63647    
517.5000      	19323.6715    	2791.63647    
518.0000      	19305.0193    	2652.54541    
518.5000      	19286.4031    	2602.09082    
519.0000      	19267.8227    	2507.09082    
519.5000      	19249.2782    	2565.45459    
520.0000      	19230.7692    	2517.36353    
520.5000      	19212.2959    	2520.27271    
521.0000      	19193.8580    	2500.00000    
521.5000      	19175.4554    	2421.36353    
522.0000      	19157.0881    	2448.27271    
522.5000      	19138.7560    	2471.81812    
523.0000      	19120.4589    	2441.63647    
523.5000      	19102.1968    	2348.72729    
524.0000      	19083.9695    	2331.72729    
524.5000      	19065.7769    	2323.81812    
525.0000      	19047.6190    	2356.00000    
525.5000      	19029.4957    	2222.54541    
526.0000      	19011.4068    	2197.63647    
526.5000      	18993.3523    	2403.81812    
527.0000      	18975.3321    	2238.54541    
527.5000      	18957.3460    	2085.72729    
528.0000      	18939.3939    	2239.45459    
528.5000      	18921.4759    	2305.54541    
529.0000      	18903.5917    	2179.18188    
529.5000      	18885.7413    	2207.72729    
530.0000      	18867.9245    	2171.90918    
530.5000      	18850.1414    	2103.00000    
531.0000      	18832.3917    	2224.27271    
531.5000      	18814.6754    	2154.81812    
532.0000      	18796.9925    	2213.09082    
532.5000      	18779.3427    	2127.18188    
533.0000      	18761.7261    	2123.72729    
533.5000      	18744.1425    	2051.81812    
534.0000      	18726.5918    	2113.18188    
534.5000      	18709.0739    	2030.90906    
535.0000      	18691.5888    	2158.36353    
535.5000      	18674.1363    	2012.36365    
536.0000      	18656.7164    	2114.45459    
536.5000      	18639.3290    	2039.54541    
537.0000      	18621.9739    	2025.72729    
537.5000      	18604.6512    	2055.54541    
538.0000      	18587.3606    	2003.72729    
538.5000      	18570.1021    	2000.18176    
539.0000      	18552.8757    	2006.54541    
539.5000      	18535.6812    	2047.45459    
540.0000      	18518.5185    	1920.45459    
540.5000      	18501.3876    	1986.00000    
541.0000      	18484.2884    	2080.72729    
541.5000      	18467.2207    	2004.81824    
542.0000      	18450.1845    	2053.54541    
542.5000      	18433.1797    	1935.72729    
543.0000      	18416.2063    	2036.36365    
543.5000      	18399.2640    	2041.81824    
544.0000      	18382.3529    	1968.09094    
544.5000      	18365.4729    	1944.54541    
545.0000      	18348.6239    	2057.09082    
545.5000      	18331.8057    	1987.18176    
546.0000      	18315.0183    	2079.27271    
546.5000      	18298.2617    	1955.81824    
547.0000      	18281.5356    	1979.36365    
547.5000      	18264.8402    	1968.90906    
548.0000      	18248.1752    	1961.18176    
548.5000      	18231.5406    	1926.36365    
549.0000      	18214.9362    	2027.72729    
549.5000      	18198.3621    	2042.18176    
550.0000      	18181.8182    	1956.00000    
550.5000      	18165.3043    	1972.54541    
551.0000      	18148.8203    	1866.27271    
551.5000      	18132.3663    	1983.45459    
552.0000      	18115.9420    	1894.45459    
552.5000      	18099.5475    	1910.45459    
553.0000      	18083.1826    	1863.27271    
553.5000      	18066.8473    	2184.54541    
554.0000      	18050.5415    	2007.63635    
554.5000      	18034.2651    	1952.45459    
555.0000      	18018.0180    	1876.09094    
555.5000      	18001.8002    	1915.36365    
556.0000      	17985.6115    	1884.18176    
556.5000      	17969.4519    	1890.18176    
557.0000      	17953.3214    	1908.72729    
557.5000      	17937.2197    	1931.63635    
558.0000      	17921.1470    	1929.81824    
558.5000      	17905.1030    	1939.18176    
559.0000      	17889.0877    	1941.45459    
559.5000      	17873.1010    	2101.63647    
560.0000      	17857.1429    	2015.90906    
560.5000      	17841.2132    	1912.54541    
561.0000      	17825.3119    	2015.81824    
561.5000      	17809.4390    	1837.09094    
562.0000      	17793.5943    	1997.72729    
562.5000      	17777.7778    	1995.00000    
563.0000      	17761.9893    	1941.54541    
563.5000      	17746.2289    	1841.72729    
564.0000      	17730.4965    	2005.09094    
564.5000      	17714.7919    	1978.00000    
565.0000      	17699.1150    	1867.72729    
565.5000      	17683.4660    	1818.27271    
566.0000      	17667.8445    	2031.36365    
566.5000      	17652.2507    	1865.90906    
567.0000      	17636.6843    	1872.36365    
567.5000      	17621.1454    	1882.45459    
568.0000      	17605.6338    	1921.36365    
568.5000      	17590.1495    	1876.81824    
569.0000      	17574.6924    	1937.81824    
569.5000      	17559.2625    	1901.45459    
570.0000      	17543.8596    	1893.36365    
570.5000      	17528.4838    	1842.81824    
571.0000      	17513.1349    	1939.63635    
571.5000      	17497.8128    	2008.45459    
572.0000      	17482.5175    	1894.90906    
572.5000      	17467.2489    	2070.90918    
573.0000      	17452.0070    	1829.45459    
573.5000      	17436.7916    	1970.45459    
574.0000      	17421.6028    	1881.45459    
574.5000      	17406.4404    	1879.54541    
575.0000      	17391.3043    	1903.18176    
575.5000      	17376.1946    	1885.90906    
576.0000      	17361.1111    	1911.72729    
576.5000      	17346.0538    	1868.54541    
577.0000      	17331.0225    	1868.72729    
577.5000      	17316.0173    	1823.63635    
578.0000      	17301.0381    	1918.54541    
578.5000      	17286.0847    	1883.27271    
579.0000      	17271.1572    	1985.90906    
579.5000      	17256.2554    	1926.54541    
580.0000      	17241.3793    	2242.09082    
580.5000      	17226.5289    	2024.00000    
581.0000      	17211.7040    	1982.45459    
581.5000      	17196.9046    	1810.27271    
582.0000      	17182.1306    	1909.90906    
582.5000      	17167.3820    	1934.09094    
583.0000      	17152.6587    	1887.27271    
583.5000      	17137.9606    	2018.54541    
584.0000      	17123.2877    	1880.09094    
584.5000      	17108.6399    	1821.36365    
585.0000      	17094.0171    	1857.63635    
585.5000      	17079.4193    	1786.18176    
586.0000      	17064.8464    	1904.90906    
586.5000      	17050.2984    	1891.54541    
587.0000      	17035.7751    	1894.90906    
587.5000      	17021.2766    	1884.00000    
588.0000      	17006.8027    	1966.63635    
588.5000      	16992.3534    	1958.72729    
589.0000      	16977.9287    	1979.63635    
589.5000      	16963.5284    	1957.72729    
590.0000      	16949.1525    	2081.54541    
590.5000      	16934.8010    	1916.45459    
591.0000      	16920.4738    	1906.63635    
591.5000      	16906.1708    	1999.90906    
592.0000      	16891.8919    	1907.72729    
592.5000      	16877.6371    	1954.72729    
593.0000      	16863.4064    	1887.90906    
593.5000      	16849.1997    	1916.72729    
594.0000      	16835.0168    	1832.00000    
594.5000      	16820.8579    	2117.27271    
595.0000      	16806.7227    	1898.36365    
595.5000      	16792.6113    	1813.54541    
596.0000      	16778.5235    	2035.00000    
596.5000      	16764.4593    	1972.90906    
597.0000      	16750.4188    	1865.81824    
597.5000      	16736.4017    	1872.63635    
598.0000      	16722.4080    	2014.45459    
598.5000      	16708.4378    	2019.81824    
599.0000      	16694.4908    	2021.27271    
599.5000      	16680.5671    	1920.81824    
600.0000      	16666.6667    	1935.54541    
600.5000      	16652.7893    	1973.09094    
601.0000      	16638.9351    	2001.00000    
601.5000      	16625.1039    	1892.81824    
602.0000      	16611.2957    	1873.72729    
602.5000      	16597.5104    	1869.63635    
603.0000      	16583.7479    	1867.63635    
603.5000      	16570.0083    	1831.00000    
604.0000      	16556.2914    	1867.81824    
604.5000      	16542.5972    	2036.27271    
605.0000      	16528.9256    	2060.09082    
605.5000      	16515.2766    	1912.45459    
606.0000      	16501.6502    	1857.54541    
606.5000      	16488.0462    	1912.54541    
607.0000      	16474.4646    	1894.36365    
607.5000      	16460.9053    	1997.09094    
608.0000      	16447.3684    	2115.63647    
608.5000      	16433.8537    	1933.90906    
609.0000      	16420.3612    	2047.27271    
609.5000      	16406.8909    	1873.45459    
610.0000      	16393.4426    	1956.27271    
610.5000      	16380.0164    	2104.54541    
611.0000      	16366.6121    	1851.54541    
611.5000      	16353.2298    	1913.36365    
612.0000      	16339.8693    	1906.09094    
612.5000      	16326.5306    	2016.90906    
613.0000      	16313.2137    	1869.90906    
613.5000      	16299.9185    	2026.45459    
614.0000      	16286.6450    	1881.81824    
614.5000      	16273.3930    	1928.54541    
615.0000      	16260.1626    	1890.00000    
615.5000      	16246.9537    	1854.45459    
616.0000      	16233.7662    	1930.54541    
616.5000      	16220.6002    	1844.63635    
617.0000      	16207.4554    	1967.54541    
617.5000      	16194.3320    	1893.27271    
618.0000      	16181.2298    	1787.00000    
618.5000      	16168.1487    	1950.00000    
619.0000      	16155.0889    	1921.18176    
619.5000      	16142.0500    	1867.09094    
620.0000      	16129.0323    	1922.63635    
620.5000      	16116.0355    	2014.45459    
621.0000      	16103.0596    	1872.90906    
621.5000      	16090.1046    	1801.27271    
622.0000      	16077.1704    	1885.72729    
622.5000      	16064.2570    	1992.45459    
623.0000      	16051.3644    	1916.18176    
623.5000      	16038.4924    	1868.27271    
624.0000      	16025.6410    	1937.00000    
624.5000      	16012.8102    	2092.81812    
625.0000      	16000.0000    	1960.36365    
625.5000      	15987.2102    	1878.54541    
626.0000      	15974.4409    	1938.27271    
626.5000      	15961.6919    	1876.18176    
627.0000      	15948.9633    	1929.81824    
627.5000      	15936.2550    	1942.36365    
628.0000      	15923.5669    	1962.45459    
628.5000      	15910.8990    	1830.54541    
629.0000      	15898.2512    	1919.00000    
629.5000      	15885.6235    	1861.63635    
630.0000      	15873.0159    	1835.63635    
630.5000      	15860.4282    	1914.09094    
631.0000      	15847.8605    	1885.36365    
631.5000      	15835.3127    	1868.54541    
632.0000      	15822.7848    	1928.63635    
632.5000      	15810.2767    	1913.90906    
633.0000      	15797.7883    	1857.54541    
633.5000      	15785.3197    	1777.09094    
634.0000      	15772.8707    	1997.81824    
634.5000      	15760.4413    	1945.18176    
635.0000      	15748.0315    	1890.00000    
635.5000      	15735.6412    	1987.36365    
636.0000      	15723.2704    	1955.18176    
636.5000      	15710.9191    	1865.72729    
637.0000      	15698.5871    	2025.09094    
637.5000      	15686.2745    	1969.00000    
638.0000      	15673.9812    	1929.36365    
638.5000      	15661.7071    	1857.18176    
639.0000      	15649.4523    	1972.45459    
639.5000      	15637.2166    	1948.90906    
640.0000      	15625.0000    	2031.18176    
640.5000      	15612.8025    	1983.63635    
641.0000      	15600.6240    	1924.63635    
641.5000      	15588.4645    	1953.81824    
642.0000      	15576.3240    	1788.81824    
642.5000      	15564.2023    	1945.90906    
643.0000      	15552.0995    	1792.63635    
643.5000      	15540.0155    	1795.81824    
644.0000      	15527.9503    	1870.27271    
644.5000      	15515.9038    	1932.54541    
645.0000      	15503.8760    	1837.09094    
645.5000      	15491.8668    	1903.45459    
646.0000      	15479.8762    	1855.45459    
646.5000      	15467.9041    	1909.90906    
647.0000      	15455.9505    	1861.90906    
647.5000      	15444.0154    	1950.45459    
648.0000      	15432.0988    	1930.09094    
648.5000      	15420.2005    	2009.90906    
649.0000      	15408.3205    	1904.09094    
649.5000      	15396.4588    	1964.90906    
650.0000      	15384.6154    	1897.63635    
650.5000      	15372.7902    	1859.54541    
651.0000      	15360.9831    	1879.09094    
651.5000      	15349.1942    	1822.18176    
652.0000      	15337.4233    	1978.72729    
652.5000      	15325.6705    	1851.36365    
653.0000      	15313.9357    	1820.45459    
653.5000      	15302.2188    	1895.90906    
654.0000      	15290.5199    	1866.00000    
654.5000      	15278.8388    	1814.90906    
655.0000      	15267.1756    	1805.00000    
655.5000      	15255.5301    	1895.18176    
656.0000      	15243.9024    	1917.45459    
656.5000      	15232.2925    	1883.00000    
657.0000      	15220.7002    	1837.27271    
657.5000      	15209.1255    	2033.90906    
658.0000      	15197.5684    	1888.36365    
658.5000      	15186.0289    	1850.72729    
659.0000      	15174.5068    	1783.63635    
659.5000      	15163.0023    	1939.27271    
660.0000      	15151.5152    	1835.27271    
660.5000      	15140.0454    	1866.54541    
661.0000      	15128.5930    	1990.72729    
661.5000      	15117.1580    	2031.27271    
662.0000      	15105.7402    	1936.00000    
662.5000      	15094.3396    	1989.27271    
663.0000      	15082.9563    	1911.90906    
663.5000      	15071.5901    	1955.90906    
664.0000      	15060.2410    	1912.18176    
664.5000      	15048.9090    	1832.81824    
665.0000      	15037.5940    	1932.27271    
665.5000      	15026.2960    	1899.45459    
666.0000      	15015.0150    	1930.90906    
666.5000      	15003.7509    	1915.18176    
667.0000      	14992.5037    	1918.81824    
667.5000      	14981.2734    	1986.63635    
668.0000      	14970.0599    	1962.36365    
668.5000      	14958.8631    	1848.18176    
669.0000      	14947.6831    	1875.81824    
669.5000      	14936.5198    	1844.72729    
670.0000      	14925.3731    	1862.54541    
670.5000      	14914.2431    	1923.54541    
671.0000      	14903.1297    	1941.63635    
671.5000      	14892.0328    	1874.18176    
672.0000      	14880.9524    	1876.09094    
672.5000      	14869.8885    	1857.00000    
673.0000      	14858.8410    	1883.90906    
673.5000      	14847.8099    	1882.27271    
674.0000      	14836.7953    	1920.36365    
674.5000      	14825.7969    	2074.18188    
675.0000      	14814.8148    	2015.09094    
675.5000      	14803.8490    	1928.27271    
676.0000      	14792.8994    	1928.90906    
676.5000      	14781.9660    	1990.09094    
677.0000      	14771.0487    	2073.36353    
677.5000      	14760.1476    	1942.00000    
678.0000      	14749.2625    	1955.09094    
678.5000      	14738.3935    	1973.63635    
679.0000      	14727.5405    	2114.00000    
679.5000      	14716.7035    	1970.18176    
680.0000      	14705.8824    	1941.18176    
680.5000      	14695.0771    	1842.00000    
681.0000      	14684.2878    	1865.00000    
681.5000      	14673.5143    	1973.45459    
682.0000      	14662.7566    	1952.18176    
682.5000      	14652.0147    	1991.90906    
683.0000      	14641.2884    	1899.90906    
683.5000      	14630.5779    	1921.00000    
684.0000      	14619.8830    	1881.81824    
684.5000      	14609.2038    	1946.90906    
685.0000      	14598.5401    	1887.72729    
685.5000      	14587.8920    	1804.63635    
686.0000      	14577.2595    	1892.63635    
686.5000      	14566.6424    	1849.54541    
687.0000      	14556.0408    	1838.00000    
687.5000      	14545.4545    	1789.63635    
688.0000      	14534.8837    	2002.54541    
688.5000      	14524.3282    	2127.00000    
689.0000      	14513.7881    	1847.63635    
689.5000      	14503.2632    	1875.63635    
690.0000      	14492.7536    	2071.63647    
690.5000      	14482.2592    	1854.90906    
691.0000      	14471.7800    	1941.90906    
691.5000      	14461.3160    	1910.90906    
692.0000      	14450.8671    	1906.90906    
692.5000      	14440.4332    	2129.18188    
693.0000      	14430.0144    	1978.54541    
693.5000      	14419.6107    	1917.45459    
694.0000      	14409.2219    	2057.27271    
694.5000      	14398.8481    	1922.45459    
695.0000      	14388.4892    	1921.90906    
695.5000      	14378.1452    	1897.36365    
696.0000      	14367.8161    	1845.36365    
696.5000      	14357.5018    	1993.36365    
697.0000      	14347.2023    	1897.54541    
697.5000      	14336.9176    	1907.00000    
698.0000      	14326.6476    	1995.54541    
698.5000      	14316.3923    	1943.72729    
699.0000      	14306.1516    	1939.00000    
699.5000      	14295.9257    	1911.27271    
700.0000      	14285.7143    	1918.45459    
700.5000      	14275.5175    	1981.09094    
701.0000      	14265.3352    	2091.18188    
701.5000      	14255.1675    	1881.63635    
702.0000      	14245.0142    	1922.72729    
702.5000      	14234.8754    	1894.00000    
703.0000      	14224.7511    	1865.54541    
703.5000      	14214.6411    	1866.90906    
704.0000      	14204.5455    	1771.00000    
704.5000      	14194.4642    	1942.63635    
705.0000      	14184.3972    	1942.90906    
705.5000      	14174.3444    	1904.27271    
706.0000      	14164.3059    	2022.45459    
706.5000      	14154.2817    	2019.18176    
707.0000      	14144.2716    	1969.90906    
707.5000      	14134.2756    	1952.72729    
708.0000      	14124.2938    	1871.81824    
708.5000      	14114.3260    	1866.18176    
709.0000      	14104.3724    	1984.00000    
709.5000      	14094.4327    	2105.72729    
710.0000      	14084.5070    	1905.36365    
710.5000      	14074.5954    	1941.27271    
711.0000      	14064.6976    	1976.18176    
711.5000      	14054.8138    	1992.54541    
712.0000      	14044.9438    	1938.90906    
712.5000      	14035.0877    	1952.90906    
713.0000      	14025.2454    	1909.36365    
713.5000      	14015.4170    	2064.00000    
714.0000      	14005.6022    	1974.36365    
714.5000      	13995.8013    	2062.72729    
715.0000      	13986.0140    	1868.54541    
715.5000      	13976.2404    	1918.81824    
716.0000      	13966.4804    	1962.36365    
716.5000      	13956.7341    	1930.45459    
717.0000      	13947.0014    	1934.09094    
717.5000      	13937.2822    	1893.72729    
718.0000      	13927.5766    	1946.63635    
718.5000      	13917.8845    	1962.63635    
719.0000      	13908.2058    	1908.72729    
719.5000      	13898.5407    	1950.72729    
720.0000      	13888.8889    	2036.45459    
720.5000      	13879.2505    	1939.18176    
721.0000      	13869.6255    	1901.36365    
721.5000      	13860.0139    	1914.36365    
722.0000      	13850.4155    	1935.36365    
722.5000      	13840.8304    	1770.00000    
723.0000      	13831.2586    	1874.27271    
723.5000      	13821.7001    	1843.27271    
724.0000      	13812.1547    	1784.09094    
724.5000      	13802.6225    	1795.45459    
725.0000      	13793.1034    	1910.72729    
725.5000      	13783.5975    	1892.72729    
726.0000      	13774.1047    	1877.72729    
726.5000      	13764.6249    	1927.36365    
727.0000      	13755.1582    	1866.00000    
727.5000      	13745.7045    	1861.81824    
728.0000      	13736.2637    	1934.81824    
728.5000      	13726.8360    	1926.45459    
729.0000      	13717.4211    	1951.18176    
729.5000      	13708.0192    	1922.72729    
730.0000      	13698.6301    	1962.90906    
730.5000      	13689.2539    	1933.81824    
731.0000      	13679.8906    	1982.81824    
731.5000      	13670.5400    	1932.81824    
732.0000      	13661.2022    	1894.00000    
732.5000      	13651.8771    	1989.36365    
733.0000      	13642.5648    	1902.72729    
733.5000      	13633.2652    	1985.18176    
734.0000      	13623.9782    	1966.72729    
734.5000      	13614.7039    	1868.45459    
735.0000      	13605.4422    	1959.90906    
735.5000      	13596.1931    	1901.18176    
736.0000      	13586.9565    	1920.18176    
736.5000      	13577.7325    	2004.18176    
737.0000      	13568.5210    	1993.27271    
737.5000      	13559.3220    	1905.36365    
738.0000      	13550.1355    	1912.72729    
738.5000      	13540.9614    	1888.18176    
739.0000      	13531.7997    	1815.45459    
739.5000      	13522.6504    	1838.81824    
740.0000      	13513.5135    	1876.63635    
740.5000      	13504.3889    	1801.81824    
741.0000      	13495.2767    	1921.00000    
741.5000      	13486.1767    	2024.72729    
742.0000      	13477.0889    	2067.81812    
742.5000      	13468.0135    	1839.81824    
743.0000      	13458.9502    	1874.90906    
743.5000      	13449.8991    	1933.00000    
744.0000      	13440.8602    	1894.63635    
744.5000      	13431.8334    	1949.45459    
745.0000      	13422.8188    	1896.09094    
745.5000      	13413.8162    	1815.54541    
746.0000      	13404.8257    	1821.54541    
746.5000      	13395.8473    	1917.00000    
747.0000      	13386.8809    	1868.27271    
747.5000      	13377.9264    	1987.18176    
748.0000      	13368.9840    	1850.09094    
748.5000      	13360.0534    	1897.54541    
749.0000      	13351.1348    	1867.72729    
749.5000      	13342.2282    	1851.72729    
750.0000      	13333.3333    	1872.54541    
750.5000      	13324.4504    	1929.54541    
751.0000      	13315.5792    	1946.63635    
751.5000      	13306.7199    	1983.36365    
752.0000      	13297.8723    	2082.09082    
752.5000      	13289.0365    	2088.18188    
753.0000      	13280.2125    	2113.09082    
753.5000      	13271.4001    	2002.63635    
754.0000      	13262.5995    	1900.27271    
754.5000      	13253.8105    	1980.09094    
755.0000      	13245.0331    	1915.81824    
755.5000      	13236.2674    	1914.45459    
756.0000      	13227.5132    	1938.36365    
756.5000      	13218.7707    	2008.72729    
757.0000      	13210.0396    	1923.27271    
757.5000      	13201.3201    	1894.63635    
758.0000      	13192.6121    	1967.27271    
758.5000      	13183.9156    	1976.18176    
759.0000      	13175.2306    	2063.90918    
759.5000      	13166.5569    	1901.45459    
760.0000      	13157.8947    	1951.18176    
760.5000      	13149.2439    	2067.09082    
761.0000      	13140.6045    	1836.00000    
761.5000      	13131.9764    	2019.90906    
762.0000      	13123.3596    	1923.90906    
762.5000      	13114.7541    	1900.18176    
763.0000      	13106.1599    	1916.81824    
763.5000      	13097.5769    	1964.18176    
764.0000      	13089.0052    	1925.00000    
764.5000      	13080.4447    	1808.36365    
765.0000      	13071.8954    	1851.00000    
765.5000      	13063.3573    	1950.36365    
766.0000      	13054.8303    	1957.45459    
766.5000      	13046.3144    	1975.63635    
767.0000      	13037.8096    	1915.18176    
767.5000      	13029.3160    	1806.63635    
768.0000      	13020.8333    	1937.90906    
768.5000      	13012.3617    	2003.54541    
769.0000      	13003.9012    	1973.27271    
769.5000      	12995.4516    	1971.18176    
770.0000      	12987.0130    	1942.45459    
770.5000      	12978.5853    	1929.90906    
771.0000      	12970.1686    	2000.90906    
771.5000      	12961.7628    	2119.00000    
772.0000      	12953.3679    	1902.18176    
772.5000      	12944.9838    	1885.90906    
773.0000      	12936.6106    	1906.81824    
773.5000      	12928.2482    	1932.36365    
774.0000      	12919.8966    	1963.09094    
774.5000      	12911.5558    	1908.63635    
775.0000      	12903.2258    	1941.81824    
775.5000      	12894.9065    	1955.54541    
776.0000      	12886.5979    	1925.18176    
776.5000      	12878.3001    	1893.81824    
777.0000      	12870.0129    	1902.36365    
777.5000      	12861.7363    	1846.27271    
778.0000      	12853.4704    	1907.18176    
778.5000      	12845.2152    	2044.09094    
779.0000      	12836.9705    	1989.90906    
779.5000      	12828.7364    	1978.90906    
780.0000      	12820.5128    	1864.36365    
780.5000      	12812.2998    	1853.54541    
781.0000      	12804.0973    	1879.81824    
781.5000      	12795.9053    	1963.00000    
782.0000      	12787.7238    	1954.18176    
782.5000      	12779.5527    	1875.81824    
783.0000      	12771.3921    	1838.81824    
783.5000      	12763.2419    	1873.18176    
784.0000      	12755.1020    	1856.81824    
784.5000      	12746.9726    	2015.09094    
785.0000      	12738.8535    	1899.18176    
785.5000      	12730.7447    	1923.72729    
786.0000      	12722.6463    	1887.00000    
786.5000      	12714.5582    	1879.90906    
787.0000      	12706.4803    	2014.63635    
787.5000      	12698.4127    	1933.81824    
788.0000      	12690.3553    	2055.18188    
788.5000      	12682.3082    	1937.54541    
789.0000      	12674.2712    	1965.63635    
789.5000      	12666.2445    	1946.00000    
790.0000      	12658.2278    	1938.45459    
790.5000      	12650.2214    	1940.27271    
791.0000      	12642.2250    	1867.09094    
791.5000      	12634.2388    	1878.09094    
792.0000      	12626.2626    	1956.81824    
792.5000      	12618.2965    	1944.09094    
793.0000      	12610.3405    	1895.00000    
793.5000      	12602.3945    	1851.81824    
794.0000      	12594.4584    	1968.36365    
794.5000      	12586.5324    	1980.36365    
795.0000      	12578.6164    	2004.09094    
795.5000      	12570.7102    	1953.27271    
796.0000      	12562.8141    	1895.54541    
796.5000      	12554.9278    	1881.36365    
797.0000      	12547.0514    	1953.00000    
797.5000      	12539.1850    	1897.54541    
798.0000      	12531.3283    	1895.45459    
798.5000      	12523.4815    	1849.45459    
799.0000      	12515.6446    	1829.54541    
799.5000      	12507.8174    	1955.09094    
800.0000      	12500.0000    	2022.45459    
