Unit Serial No : 240-LV0P465-EU
Integration Time : 249 ms
Time Average: 11
Binning Average: 0
FFT Smoothing: 0%
Project Name : Project Name
Sample Name : Sample Name
Measurement No : 1
Measurement Time : 09/18/2007   09:28:53

Wavelength(nm)	Wavenumber(1/cm)	Intensity(Counts)
350.0000      	28571.4286    	2862.81812    
350.5000      	28530.6705    	2822.72729    
351.0000      	28490.0285    	2773.54541    
351.5000      	28449.5021    	2836.63647    
352.0000      	28409.0909    	2679.09082    
352.5000      	28368.7943    	2697.81812    
353.0000      	28328.6119    	2583.81812    
353.5000      	28288.5431    	2785.81812    
354.0000      	28248.5876    	2455.00000    
354.5000      	28208.7447    	2452.36353    
355.0000      	28169.0141    	2598.00000    
355.5000      	28129.3952    	2690.09082    
356.0000      	28089.8876    	2297.81812    
356.5000      	28050.4909    	2537.72729    
357.0000      	28011.2045    	2464.54541    
357.5000      	27972.0280    	2538.09082    
358.0000      	27932.9609    	2554.09082    
358.5000      	27894.0028    	3120.90918    
359.0000      	27855.1532    	2602.18188    
359.5000      	27816.4117    	2694.09082    
360.0000      	27777.7778    	2575.45459    
360.5000      	27739.2510    	2684.54541    
361.0000      	27700.8310    	2655.45459    
361.5000      	27662.5173    	2931.81812    
362.0000      	27624.3094    	2689.18188    
362.5000      	27586.2069    	2857.27271    
363.0000      	27548.2094    	2872.09082    
363.5000      	27510.3164    	2491.18188    
364.0000      	27472.5275    	2248.63647    
364.5000      	27434.8422    	2420.90918    
365.0000      	27397.2603    	2568.36353    
365.5000      	27359.7811    	2719.72729    
366.0000      	27322.4044    	2737.90918    
366.5000      	27285.1296    	2664.72729    
367.0000      	27247.9564    	2637.00000    
367.5000      	27210.8844    	2966.45459    
368.0000      	27173.9130    	2627.63647    
368.5000      	27137.0421    	2971.27271    
369.0000      	27100.2710    	2601.45459    
369.5000      	27063.5995    	2576.81812    
370.0000      	27027.0270    	2993.54541    
370.5000      	26990.5533    	2388.00000    
371.0000      	26954.1779    	2693.54541    
371.5000      	26917.9004    	2482.54541    
372.0000      	26881.7204    	2531.27271    
372.5000      	26845.6376    	2726.63647    
373.0000      	26809.6515    	2508.00000    
373.5000      	26773.7617    	2734.81812    
374.0000      	26737.9679    	3021.36353    
374.5000      	26702.2697    	2689.54541    
375.0000      	26666.6667    	2521.36353    
375.5000      	26631.1585    	2677.45459    
376.0000      	26595.7447    	2635.18188    
376.5000      	26560.4250    	2458.00000    
377.0000      	26525.1989    	2673.54541    
377.5000      	26490.0662    	2657.36353    
378.0000      	26455.0265    	2576.90918    
378.5000      	26420.0793    	2621.09082    
379.0000      	26385.2243    	2647.54541    
379.5000      	26350.4611    	2664.09082    
380.0000      	26315.7895    	2514.81812    
380.5000      	26281.2089    	2581.45459    
381.0000      	26246.7192    	2600.45459    
381.5000      	26212.3198    	2472.09082    
382.0000      	26178.0105    	2668.63647    
382.5000      	26143.7908    	2757.00000    
383.0000      	26109.6606    	2756.45459    
383.5000      	26075.6193    	2591.27271    
384.0000      	26041.6667    	3048.00000    
384.5000      	26007.8023    	2564.18188    
385.0000      	25974.0260    	2542.81812    
385.5000      	25940.3372    	2510.00000    
386.0000      	25906.7358    	2394.81812    
386.5000      	25873.2212    	2613.27271    
387.0000      	25839.7933    	2713.72729    
387.5000      	25806.4516    	2523.72729    
388.0000      	25773.1959    	2720.27271    
388.5000      	25740.0257    	2669.00000    
389.0000      	25706.9409    	2603.27271    
389.5000      	25673.9409    	2758.81812    
390.0000      	25641.0256    	2634.90918    
390.5000      	25608.1946    	2605.81812    
391.0000      	25575.4476    	2644.18188    
391.5000      	25542.7842    	2923.00000    
392.0000      	25510.2041    	2524.45459    
392.5000      	25477.7070    	2497.63647    
393.0000      	25445.2926    	2783.72729    
393.5000      	25412.9606    	2483.09082    
394.0000      	25380.7107    	2921.00000    
394.5000      	25348.5425    	2504.45459    
395.0000      	25316.4557    	2717.36353    
395.5000      	25284.4501    	2631.36353    
396.0000      	25252.5253    	2958.09082    
396.5000      	25220.6810    	2657.18188    
397.0000      	25188.9169    	2769.72729    
397.5000      	25157.2327    	2740.36353    
398.0000      	25125.6281    	2686.18188    
398.5000      	25094.1029    	2523.81812    
399.0000      	25062.6566    	2772.36353    
399.5000      	25031.2891    	2937.72729    
400.0000      	25000.0000    	2782.36353    
400.5000      	24968.7890    	2567.36353    
401.0000      	24937.6559    	2543.45459    
401.5000      	24906.6002    	2762.27271    
402.0000      	24875.6219    	2781.63647    
402.5000      	24844.7205    	2713.72729    
403.0000      	24813.8958    	2365.90918    
403.5000      	24783.1475    	2617.81812    
404.0000      	24752.4752    	2664.45459    
404.5000      	24721.8789    	2916.27271    
405.0000      	24691.3580    	2688.00000    
405.5000      	24660.9125    	2569.18188    
406.0000      	24630.5419    	2510.09082    
406.5000      	24600.2460    	2492.63647    
407.0000      	24570.0246    	2726.72729    
407.5000      	24539.8773    	2480.00000    
408.0000      	24509.8039    	2418.00000    
408.5000      	24479.8042    	2454.72729    
409.0000      	24449.8778    	2421.72729    
409.5000      	24420.0244    	2659.36353    
410.0000      	24390.2439    	2632.90918    
410.5000      	24360.5359    	2763.90918    
411.0000      	24330.9002    	2746.45459    
411.5000      	24301.3366    	2725.81812    
412.0000      	24271.8447    	2829.63647    
412.5000      	24242.4242    	2518.00000    
413.0000      	24213.0751    	2814.63647    
413.5000      	24183.7969    	2685.18188    
414.0000      	24154.5894    	2580.36353    
414.5000      	24125.4524    	2503.36353    
415.0000      	24096.3855    	2392.09082    
415.5000      	24067.3887    	2440.81812    
416.0000      	24038.4615    	2749.90918    
416.5000      	24009.6038    	2734.18188    
417.0000      	23980.8153    	2556.45459    
417.5000      	23952.0958    	2450.45459    
418.0000      	23923.4450    	2728.72729    
418.5000      	23894.8626    	2645.81812    
419.0000      	23866.3484    	2678.81812    
419.5000      	23837.9023    	2512.27271    
420.0000      	23809.5238    	2626.81812    
420.5000      	23781.2128    	2591.36353    
421.0000      	23752.9691    	2542.18188    
421.5000      	23724.7924    	2515.00000    
422.0000      	23696.6825    	2733.63647    
422.5000      	23668.6391    	2633.45459    
423.0000      	23640.6619    	2704.36353    
423.5000      	23612.7509    	2468.81812    
424.0000      	23584.9057    	2658.09082    
424.5000      	23557.1260    	2879.27271    
425.0000      	23529.4118    	2495.45459    
425.5000      	23501.7626    	2337.81812    
426.0000      	23474.1784    	2515.27271    
426.5000      	23446.6589    	2513.72729    
427.0000      	23419.2037    	2599.27271    
427.5000      	23391.8129    	2602.63647    
428.0000      	23364.4860    	2505.27271    
428.5000      	23337.2229    	2555.00000    
429.0000      	23310.0233    	3003.45459    
429.5000      	23282.8871    	2754.45459    
430.0000      	23255.8140    	2618.27271    
430.5000      	23228.8037    	2639.45459    
431.0000      	23201.8561    	2956.18188    
431.5000      	23174.9710    	2506.09082    
432.0000      	23148.1481    	2417.72729    
432.5000      	23121.3873    	2535.63647    
433.0000      	23094.6882    	2321.54541    
433.5000      	23068.0507    	2551.00000    
434.0000      	23041.4747    	2910.54541    
434.5000      	23014.9597    	2487.63647    
435.0000      	22988.5057    	2529.63647    
435.5000      	22962.1125    	2941.45459    
436.0000      	22935.7798    	2744.18188    
436.5000      	22909.5074    	2505.72729    
437.0000      	22883.2952    	2477.27271    
437.5000      	22857.1429    	2542.81812    
438.0000      	22831.0502    	2423.63647    
438.5000      	22805.0171    	2365.81812    
439.0000      	22779.0433    	2393.36353    
439.5000      	22753.1286    	2286.63647    
440.0000      	22727.2727    	2963.09082    
440.5000      	22701.4756    	2758.09082    
441.0000      	22675.7370    	3086.72729    
441.5000      	22650.0566    	2462.81812    
442.0000      	22624.4344    	2442.45459    
442.5000      	22598.8701    	2945.27271    
443.0000      	22573.3634    	2716.54541    
443.5000      	22547.9143    	2703.36353    
444.0000      	22522.5225    	2691.63647    
444.5000      	22497.1879    	2687.45459    
445.0000      	22471.9101    	2781.54541    
445.5000      	22446.6891    	2224.36353    
446.0000      	22421.5247    	2384.45459    
446.5000      	22396.4166    	2691.54541    
447.0000      	22371.3647    	2479.63647    
447.5000      	22346.3687    	2633.81812    
448.0000      	22321.4286    	2663.81812    
448.5000      	22296.5440    	2417.27271    
449.0000      	22271.7149    	2639.81812    
449.5000      	22246.9410    	2956.90918    
450.0000      	22222.2222    	2590.45459    
450.5000      	22197.5583    	2757.27271    
451.0000      	22172.9490    	2776.36353    
451.5000      	22148.3942    	2678.18188    
452.0000      	22123.8938    	2533.36353    
452.5000      	22099.4475    	2521.09082    
453.0000      	22075.0552    	2557.81812    
453.5000      	22050.7166    	2500.27271    
454.0000      	22026.4317    	2385.09082    
454.5000      	22002.2002    	2421.81812    
455.0000      	21978.0220    	2585.09082    
455.5000      	21953.8968    	2652.00000    
456.0000      	21929.8246    	2627.90918    
456.5000      	21905.8050    	2693.81812    
457.0000      	21881.8381    	2904.45459    
457.5000      	21857.9235    	2825.72729    
458.0000      	21834.0611    	2641.63647    
458.5000      	21810.2508    	2459.00000    
459.0000      	21786.4924    	3000.09082    
459.5000      	21762.7856    	2605.72729    
460.0000      	21739.1304    	2820.81812    
460.5000      	21715.5266    	2586.72729    
461.0000      	21691.9740    	2645.54541    
461.5000      	21668.4724    	2967.54541    
462.0000      	21645.0216    	2850.81812    
462.5000      	21621.6216    	2483.09082    
463.0000      	21598.2721    	2704.63647    
463.5000      	21574.9730    	2581.45459    
464.0000      	21551.7241    	2538.54541    
464.5000      	21528.5253    	2763.63647    
465.0000      	21505.3763    	2851.72729    
465.5000      	21482.2771    	2531.27271    
466.0000      	21459.2275    	3642.63647    
466.5000      	21436.2272    	2397.54541    
467.0000      	21413.2762    	2568.36353    
467.5000      	21390.3743    	2913.00000    
468.0000      	21367.5214    	2668.18188    
468.5000      	21344.7172    	2670.45459    
469.0000      	21321.9616    	3102.36353    
469.5000      	21299.2545    	2830.90918    
470.0000      	21276.5957    	2647.09082    
470.5000      	21253.9851    	3020.54541    
471.0000      	21231.4225    	2911.00000    
471.5000      	21208.9077    	2590.54541    
472.0000      	21186.4407    	2509.27271    
472.5000      	21164.0212    	2748.81812    
473.0000      	21141.6490    	2871.72729    
473.5000      	21119.3242    	2734.00000    
474.0000      	21097.0464    	3134.27271    
474.5000      	21074.8156    	2913.09082    
475.0000      	21052.6316    	2606.27271    
475.5000      	21030.4942    	2968.09082    
476.0000      	21008.4034    	2847.81812    
476.5000      	20986.3589    	2912.36353    
477.0000      	20964.3606    	3083.54541    
477.5000      	20942.4084    	3249.27271    
478.0000      	20920.5021    	3310.36353    
478.5000      	20898.6416    	3265.45459    
479.0000      	20876.8267    	3185.72729    
479.5000      	20855.0574    	3197.45459    
480.0000      	20833.3333    	3222.09082    
480.5000      	20811.6545    	3321.81812    
481.0000      	20790.0208    	3459.81812    
481.5000      	20768.4320    	3271.27271    
482.0000      	20746.8880    	3416.63647    
482.5000      	20725.3886    	3794.81812    
483.0000      	20703.9337    	3643.63647    
483.5000      	20682.5233    	3793.63647    
484.0000      	20661.1570    	3850.45459    
484.5000      	20639.8349    	3802.63647    
485.0000      	20618.5567    	3819.18188    
485.5000      	20597.3223    	4142.09082    
486.0000      	20576.1317    	4267.72705    
486.5000      	20554.9846    	3789.36353    
487.0000      	20533.8809    	4078.36353    
487.5000      	20512.8205    	4143.72705    
488.0000      	20491.8033    	4655.09082    
488.5000      	20470.8291    	4231.72705    
489.0000      	20449.8978    	4280.45459    
489.5000      	20429.0092    	4631.63623    
490.0000      	20408.1633    	4699.72705    
490.5000      	20387.3598    	4710.72705    
491.0000      	20366.5988    	4725.00000    
491.5000      	20345.8800    	5093.18164    
492.0000      	20325.2033    	4924.63623    
492.5000      	20304.5685    	4929.81836    
493.0000      	20283.9757    	5480.81836    
493.5000      	20263.4245    	4906.36377    
494.0000      	20242.9150    	5283.54541    
494.5000      	20222.4469    	5505.27295    
495.0000      	20202.0202    	5494.09082    
495.5000      	20181.6347    	5342.72705    
496.0000      	20161.2903    	5731.81836    
496.5000      	20140.9869    	5697.54541    
497.0000      	20120.7243    	5721.36377    
497.5000      	20100.5025    	6162.81836    
498.0000      	20080.3213    	5915.54541    
498.5000      	20060.1805    	5891.72705    
499.0000      	20040.0802    	6561.09082    
499.5000      	20020.0200    	6295.90918    
500.0000      	20000.0000    	6139.18164    
500.5000      	19980.0200    	6361.72705    
501.0000      	19960.0798    	6578.09082    
501.5000      	19940.1795    	6452.54541    
502.0000      	19920.3187    	6619.45459    
502.5000      	19900.4975    	6506.90918    
503.0000      	19880.7157    	6429.45459    
503.5000      	19860.9732    	6665.36377    
504.0000      	19841.2698    	6779.45459    
504.5000      	19821.6056    	7081.18164    
505.0000      	19801.9802    	6943.90918    
505.5000      	19782.3937    	6846.45459    
506.0000      	19762.8458    	6962.36377    
506.5000      	19743.3366    	6793.00000    
507.0000      	19723.8659    	7065.63623    
507.5000      	19704.4335    	7190.63623    
508.0000      	19685.0394    	7277.81836    
508.5000      	19665.6834    	6863.45459    
509.0000      	19646.3654    	7087.81836    
509.5000      	19627.0854    	7403.54541    
510.0000      	19607.8431    	7602.81836    
510.5000      	19588.6386    	7014.54541    
511.0000      	19569.4716    	6933.54541    
511.5000      	19550.3421    	7109.72705    
512.0000      	19531.2500    	7271.54541    
512.5000      	19512.1951    	6612.90918    
513.0000      	19493.1774    	6634.27295    
513.5000      	19474.1967    	6570.09082    
514.0000      	19455.2529    	6620.81836    
514.5000      	19436.3460    	6397.63623    
515.0000      	19417.4757    	6254.72705    
515.5000      	19398.6421    	6573.09082    
516.0000      	19379.8450    	6159.09082    
516.5000      	19361.0842    	6157.54541    
517.0000      	19342.3598    	5920.63623    
517.5000      	19323.6715    	6003.54541    
518.0000      	19305.0193    	5706.00000    
518.5000      	19286.4031    	5552.45459    
519.0000      	19267.8227    	5365.90918    
519.5000      	19249.2782    	5444.36377    
520.0000      	19230.7692    	5284.18164    
520.5000      	19212.2959    	5242.90918    
521.0000      	19193.8580    	5259.81836    
521.5000      	19175.4554    	4953.27295    
522.0000      	19157.0881    	5046.18164    
522.5000      	19138.7560    	4962.45459    
523.0000      	19120.4589    	4879.90918    
523.5000      	19102.1968    	4639.54541    
524.0000      	19083.9695    	4622.00000    
524.5000      	19065.7769    	4489.54541    
525.0000      	19047.6190    	4539.90918    
525.5000      	19029.4957    	4184.27295    
526.0000      	19011.4068    	4119.72705    
526.5000      	18993.3523    	4646.36377    
527.0000      	18975.3321    	4092.36353    
527.5000      	18957.3460    	3732.27271    
528.0000      	18939.3939    	4050.81812    
528.5000      	18921.4759    	4229.36377    
529.0000      	18903.5917    	3889.72729    
529.5000      	18885.7413    	3952.09082    
530.0000      	18867.9245    	3788.27271    
530.5000      	18850.1414    	3608.72729    
531.0000      	18832.3917    	3900.72729    
531.5000      	18814.6754    	3706.09082    
532.0000      	18796.9925    	3775.00000    
532.5000      	18779.3427    	3557.36353    
533.0000      	18761.7261    	3515.36353    
533.5000      	18744.1425    	3421.27271    
534.0000      	18726.5918    	3540.72729    
534.5000      	18709.0739    	3334.27271    
535.0000      	18691.5888    	3570.00000    
535.5000      	18674.1363    	3208.27271    
536.0000      	18656.7164    	3458.54541    
536.5000      	18639.3290    	3228.27271    
537.0000      	18621.9739    	3218.63647    
537.5000      	18604.6512    	3220.72729    
538.0000      	18587.3606    	3127.09082    
538.5000      	18570.1021    	3069.36353    
539.0000      	18552.8757    	3088.18188    
539.5000      	18535.6812    	3187.18188    
540.0000      	18518.5185    	2835.18188    
540.5000      	18501.3876    	2925.54541    
541.0000      	18484.2884    	3122.81812    
541.5000      	18467.2207    	2976.63647    
542.0000      	18450.1845    	3092.00000    
542.5000      	18433.1797    	2723.72729    
543.0000      	18416.2063    	2996.45459    
543.5000      	18399.2640    	3013.27271    
544.0000      	18382.3529    	2812.81812    
544.5000      	18365.4729    	2718.00000    
545.0000      	18348.6239    	3069.54541    
545.5000      	18331.8057    	2837.54541    
546.0000      	18315.0183    	3090.00000    
546.5000      	18298.2617    	2757.45459    
547.0000      	18281.5356    	2748.90918    
547.5000      	18264.8402    	2786.90918    
548.0000      	18248.1752    	2817.45459    
548.5000      	18231.5406    	2627.00000    
549.0000      	18214.9362    	2841.72729    
549.5000      	18198.3621    	2905.00000    
550.0000      	18181.8182    	2672.54541    
550.5000      	18165.3043    	2781.00000    
551.0000      	18148.8203    	2441.54541    
551.5000      	18132.3663    	2684.90918    
552.0000      	18115.9420    	2521.54541    
552.5000      	18099.5475    	2581.09082    
553.0000      	18083.1826    	2455.09082    
553.5000      	18066.8473    	3150.09082    
554.0000      	18050.5415    	2862.90918    
554.5000      	18034.2651    	2685.90918    
555.0000      	18018.0180    	2459.18188    
555.5000      	18001.8002    	2500.72729    
556.0000      	17985.6115    	2414.09082    
556.5000      	17969.4519    	2414.18188    
557.0000      	17953.3214    	2520.72729    
557.5000      	17937.2197    	2567.18188    
558.0000      	17921.1470    	2584.54541    
558.5000      	17905.1030    	2559.27271    
559.0000      	17889.0877    	2611.45459    
559.5000      	17873.1010    	2952.09082    
560.0000      	17857.1429    	2769.90918    
560.5000      	17841.2132    	2542.63647    
561.0000      	17825.3119    	2773.36353    
561.5000      	17809.4390    	2328.54541    
562.0000      	17793.5943    	2709.27271    
562.5000      	17777.7778    	2699.27271    
563.0000      	17761.9893    	2608.63647    
563.5000      	17746.2289    	2381.00000    
564.0000      	17730.4965    	2732.81812    
564.5000      	17714.7919    	2662.27271    
565.0000      	17699.1150    	2381.18188    
565.5000      	17683.4660    	2313.27271    
566.0000      	17667.8445    	2772.90918    
566.5000      	17652.2507    	2421.45459    
567.0000      	17636.6843    	2441.36353    
567.5000      	17621.1454    	2455.09082    
568.0000      	17605.6338    	2551.81812    
568.5000      	17590.1495    	2431.27271    
569.0000      	17574.6924    	2586.72729    
569.5000      	17559.2625    	2517.63647    
570.0000      	17543.8596    	2441.54541    
570.5000      	17528.4838    	2313.72729    
571.0000      	17513.1349    	2532.63647    
571.5000      	17497.8128    	2730.72729    
572.0000      	17482.5175    	2435.45459    
572.5000      	17467.2489    	2887.72729    
573.0000      	17452.0070    	2310.36353    
573.5000      	17436.7916    	2613.63647    
574.0000      	17421.6028    	2453.09082    
574.5000      	17406.4404    	2443.72729    
575.0000      	17391.3043    	2503.00000    
575.5000      	17376.1946    	2499.63647    
576.0000      	17361.1111    	2568.27271    
576.5000      	17346.0538    	2392.90918    
577.0000      	17331.0225    	2373.81812    
577.5000      	17316.0173    	2316.00000    
578.0000      	17301.0381    	2572.36353    
578.5000      	17286.0847    	2505.90918    
579.0000      	17271.1572    	2679.00000    
579.5000      	17256.2554    	2462.72729    
580.0000      	17241.3793    	3326.45459    
580.5000      	17226.5289    	2765.18188    
581.0000      	17211.7040    	2606.09082    
581.5000      	17196.9046    	2322.45459    
582.0000      	17182.1306    	2517.81812    
582.5000      	17167.3820    	2627.72729    
583.0000      	17152.6587    	2452.36353    
583.5000      	17137.9606    	2729.45459    
584.0000      	17123.2877    	2398.90918    
584.5000      	17108.6399    	2259.81812    
585.0000      	17094.0171    	2384.27271    
585.5000      	17079.4193    	2207.09082    
586.0000      	17064.8464    	2484.00000    
586.5000      	17050.2984    	2402.54541    
587.0000      	17035.7751    	2492.45459    
587.5000      	17021.2766    	2489.36353    
588.0000      	17006.8027    	2655.90918    
588.5000      	16992.3534    	2588.09082    
589.0000      	16977.9287    	2654.36353    
589.5000      	16963.5284    	2598.27271    
590.0000      	16949.1525    	2962.63647    
590.5000      	16934.8010    	2630.00000    
591.0000      	16920.4738    	2530.09082    
591.5000      	16906.1708    	2775.54541    
592.0000      	16891.8919    	2486.63647    
592.5000      	16877.6371    	2651.45459    
593.0000      	16863.4064    	2503.72729    
593.5000      	16849.1997    	2543.72729    
594.0000      	16835.0168    	2306.27271    
594.5000      	16820.8579    	3012.72729    
595.0000      	16806.7227    	2480.00000    
595.5000      	16792.6113    	2333.54541    
596.0000      	16778.5235    	2833.27271    
596.5000      	16764.4593    	2646.45459    
597.0000      	16750.4188    	2432.18188    
597.5000      	16736.4017    	2364.36353    
598.0000      	16722.4080    	2742.72729    
598.5000      	16708.4378    	2722.09082    
599.0000      	16694.4908    	2764.54541    
599.5000      	16680.5671    	2519.18188    
600.0000      	16666.6667    	2594.54541    
600.5000      	16652.7893    	2633.27271    
601.0000      	16638.9351    	2775.18188    
601.5000      	16625.1039    	2457.90918    
602.0000      	16611.2957    	2387.54541    
602.5000      	16597.5104    	2413.27271    
603.0000      	16583.7479    	2426.90918    
603.5000      	16570.0083    	2335.27271    
604.0000      	16556.2914    	2380.90918    
604.5000      	16542.5972    	2812.90918    
605.0000      	16528.9256    	2886.54541    
605.5000      	16515.2766    	2511.90918    
606.0000      	16501.6502    	2414.72729    
606.5000      	16488.0462    	2508.45459    
607.0000      	16474.4646    	2494.18188    
607.5000      	16460.9053    	2741.36353    
608.0000      	16447.3684    	2950.36353    
608.5000      	16433.8537    	2578.63647    
609.0000      	16420.3612    	2809.45459    
609.5000      	16406.8909    	2413.09082    
610.0000      	16393.4426    	2667.09082    
610.5000      	16380.0164    	2980.81812    
611.0000      	16366.6121    	2335.45459    
611.5000      	16353.2298    	2543.81812    
612.0000      	16339.8693    	2517.90918    
612.5000      	16326.5306    	2747.72729    
613.0000      	16313.2137    	2403.18188    
613.5000      	16299.9185    	2798.90918    
614.0000      	16286.6450    	2486.90918    
614.5000      	16273.3930    	2550.81812    
615.0000      	16260.1626    	2468.09082    
615.5000      	16246.9537    	2409.90918    
616.0000      	16233.7662    	2544.09082    
616.5000      	16220.6002    	2388.27271    
617.0000      	16207.4554    	2621.81812    
617.5000      	16194.3320    	2456.09082    
618.0000      	16181.2298    	2263.81812    
618.5000      	16168.1487    	2663.36353    
619.0000      	16155.0889    	2590.81812    
619.5000      	16142.0500    	2440.00000    
620.0000      	16129.0323    	2537.18188    
620.5000      	16116.0355    	2752.27271    
621.0000      	16103.0596    	2458.45459    
621.5000      	16090.1046    	2232.72729    
622.0000      	16077.1704    	2399.63647    
622.5000      	16064.2570    	2762.00000    
623.0000      	16051.3644    	2514.45459    
623.5000      	16038.4924    	2423.54541    
624.0000      	16025.6410    	2585.81812    
624.5000      	16012.8102    	2962.09082    
625.0000      	16000.0000    	2622.18188    
625.5000      	15987.2102    	2423.09082    
626.0000      	15974.4409    	2570.27271    
626.5000      	15961.6919    	2430.27271    
627.0000      	15948.9633    	2553.36353    
627.5000      	15936.2550    	2646.63647    
628.0000      	15923.5669    	2692.36353    
628.5000      	15910.8990    	2318.54541    
629.0000      	15898.2512    	2549.45459    
629.5000      	15885.6235    	2388.45459    
630.0000      	15873.0159    	2351.54541    
630.5000      	15860.4282    	2484.90918    
631.0000      	15847.8605    	2524.72729    
631.5000      	15835.3127    	2400.81812    
632.0000      	15822.7848    	2529.00000    
632.5000      	15810.2767    	2582.18188    
633.0000      	15797.7883    	2398.27271    
633.5000      	15785.3197    	2246.54541    
634.0000      	15772.8707    	2777.72729    
634.5000      	15760.4413    	2614.36353    
635.0000      	15748.0315    	2496.54541    
635.5000      	15735.6412    	2728.36353    
636.0000      	15723.2704    	2635.72729    
636.5000      	15710.9191    	2469.27271    
637.0000      	15698.5871    	2853.90918    
637.5000      	15686.2745    	2722.36353    
638.0000      	15673.9812    	2583.72729    
638.5000      	15661.7071    	2428.45459    
639.0000      	15649.4523    	2708.00000    
639.5000      	15637.2166    	2642.81812    
640.0000      	15625.0000    	2851.09082    
640.5000      	15612.8025    	2739.00000    
641.0000      	15600.6240    	2548.90918    
641.5000      	15588.4645    	2643.45459    
642.0000      	15576.3240    	2264.54541    
642.5000      	15564.2023    	2689.63647    
643.0000      	15552.0995    	2231.81812    
643.5000      	15540.0155    	2296.45459    
644.0000      	15527.9503    	2448.90918    
644.5000      	15515.9038    	2606.81812    
645.0000      	15503.8760    	2393.27271    
645.5000      	15491.8668    	2584.36353    
646.0000      	15479.8762    	2402.63647    
646.5000      	15467.9041    	2513.27271    
647.0000      	15455.9505    	2348.27271    
647.5000      	15444.0154    	2601.09082    
648.0000      	15432.0988    	2611.18188    
648.5000      	15420.2005    	2804.54541    
649.0000      	15408.3205    	2558.27271    
649.5000      	15396.4588    	2655.00000    
650.0000      	15384.6154    	2497.45459    
650.5000      	15372.7902    	2440.45459    
651.0000      	15360.9831    	2435.63647    
651.5000      	15349.1942    	2316.45459    
652.0000      	15337.4233    	2771.63647    
652.5000      	15325.6705    	2442.81812    
653.0000      	15313.9357    	2346.72729    
653.5000      	15302.2188    	2483.09082    
654.0000      	15290.5199    	2433.18188    
654.5000      	15278.8388    	2303.09082    
655.0000      	15267.1756    	2265.81812    
655.5000      	15255.5301    	2489.63647    
656.0000      	15243.9024    	2500.00000    
656.5000      	15232.2925    	2424.09082    
657.0000      	15220.7002    	2309.54541    
657.5000      	15209.1255    	2904.54541    
658.0000      	15197.5684    	2566.72729    
658.5000      	15186.0289    	2417.81812    
659.0000      	15174.5068    	2282.54541    
659.5000      	15163.0023    	2658.81812    
660.0000      	15151.5152    	2350.63647    
660.5000      	15140.0454    	2453.63647    
661.0000      	15128.5930    	2721.09082    
661.5000      	15117.1580    	2812.63647    
662.0000      	15105.7402    	2624.00000    
662.5000      	15094.3396    	2762.00000    
663.0000      	15082.9563    	2551.09082    
663.5000      	15071.5901    	2537.63647    
664.0000      	15060.2410    	2527.54541    
664.5000      	15048.9090    	2359.72729    
665.0000      	15037.5940    	2582.00000    
665.5000      	15026.2960    	2582.72729    
666.0000      	15015.0150    	2523.90918    
666.5000      	15003.7509    	2500.36353    
667.0000      	14992.5037    	2559.72729    
667.5000      	14981.2734    	2731.81812    
668.0000      	14970.0599    	2639.63647    
668.5000      	14958.8631    	2359.27271    
669.0000      	14947.6831    	2455.45459    
669.5000      	14936.5198    	2353.00000    
670.0000      	14925.3731    	2410.09082    
670.5000      	14914.2431    	2606.63647    
671.0000      	14903.1297    	2708.90918    
671.5000      	14892.0328    	2451.00000    
672.0000      	14880.9524    	2402.72729    
672.5000      	14869.8885    	2378.00000    
673.0000      	14858.8410    	2497.54541    
673.5000      	14847.8099    	2475.18188    
674.0000      	14836.7953    	2581.81812    
674.5000      	14825.7969    	2955.27271    
675.0000      	14814.8148    	2791.81812    
675.5000      	14803.8490    	2522.45459    
676.0000      	14792.8994    	2549.36353    
676.5000      	14781.9660    	2723.45459    
677.0000      	14771.0487    	2931.09082    
677.5000      	14760.1476    	2618.54541    
678.0000      	14749.2625    	2633.54541    
678.5000      	14738.3935    	2636.09082    
679.0000      	14727.5405    	3064.63647    
679.5000      	14716.7035    	2693.54541    
680.0000      	14705.8824    	2599.45459    
680.5000      	14695.0771    	2400.27271    
681.0000      	14684.2878    	2432.18188    
681.5000      	14673.5143    	2705.09082    
682.0000      	14662.7566    	2585.72729    
682.5000      	14652.0147    	2754.18188    
683.0000      	14641.2884    	2518.27271    
683.5000      	14630.5779    	2572.00000    
684.0000      	14619.8830    	2457.27271    
684.5000      	14609.2038    	2624.09082    
685.0000      	14598.5401    	2511.09082    
685.5000      	14587.8920    	2284.09082    
686.0000      	14577.2595    	2499.36353    
686.5000      	14566.6424    	2385.09082    
687.0000      	14556.0408    	2351.72729    
687.5000      	14545.4545    	2255.90918    
688.0000      	14534.8837    	2754.90918    
688.5000      	14524.3282    	3082.72729    
689.0000      	14513.7881    	2415.00000    
689.5000      	14503.2632    	2433.45459    
690.0000      	14492.7536    	2902.27271    
690.5000      	14482.2592    	2353.72729    
691.0000      	14471.7800    	2577.81812    
691.5000      	14461.3160    	2456.36353    
692.0000      	14450.8671    	2560.90918    
692.5000      	14440.4332    	3110.90918    
693.0000      	14430.0144    	2680.36353    
693.5000      	14419.6107    	2515.27271    
694.0000      	14409.2219    	2901.63647    
694.5000      	14398.8481    	2558.09082    
695.0000      	14388.4892    	2515.90918    
695.5000      	14378.1452    	2485.63647    
696.0000      	14367.8161    	2342.45459    
696.5000      	14357.5018    	2678.27271    
697.0000      	14347.2023    	2502.90918    
697.5000      	14336.9176    	2539.00000    
698.0000      	14326.6476    	2727.63647    
698.5000      	14316.3923    	2652.54541    
699.0000      	14306.1516    	2626.81812    
699.5000      	14295.9257    	2569.81812    
700.0000      	14285.7143    	2504.27271    
700.5000      	14275.5175    	2685.72729    
701.0000      	14265.3352    	3009.00000    
701.5000      	14255.1675    	2465.63647    
702.0000      	14245.0142    	2583.63647    
702.5000      	14234.8754    	2499.18188    
703.0000      	14224.7511    	2425.72729    
703.5000      	14214.6411    	2385.72729    
704.0000      	14204.5455    	2172.45459    
704.5000      	14194.4642    	2625.63647    
705.0000      	14184.3972    	2659.36353    
705.5000      	14174.3444    	2534.90918    
706.0000      	14164.3059    	2778.09082    
706.5000      	14154.2817    	2732.27271    
707.0000      	14144.2716    	2648.09082    
707.5000      	14134.2756    	2544.09082    
708.0000      	14124.2938    	2465.18188    
708.5000      	14114.3260    	2430.00000    
709.0000      	14104.3724    	2644.27271    
709.5000      	14094.4327    	2989.81812    
710.0000      	14084.5070    	2518.00000    
710.5000      	14074.5954    	2586.00000    
711.0000      	14064.6976    	2719.27271    
711.5000      	14054.8138    	2735.00000    
712.0000      	14044.9438    	2631.90918    
712.5000      	14035.0877    	2673.36353    
713.0000      	14025.2454    	2527.72729    
713.5000      	14015.4170    	2928.00000    
714.0000      	14005.6022    	2725.63647    
714.5000      	13995.8013    	2907.54541    
715.0000      	13986.0140    	2392.90918    
715.5000      	13976.2404    	2505.09082    
716.0000      	13966.4804    	2660.81812    
716.5000      	13956.7341    	2616.45459    
717.0000      	13947.0014    	2616.09082    
717.5000      	13937.2822    	2486.72729    
718.0000      	13927.5766    	2640.36353    
718.5000      	13917.8845    	2623.18188    
719.0000      	13908.2058    	2496.45459    
719.5000      	13898.5407    	2630.09082    
720.0000      	13888.8889    	2812.18188    
720.5000      	13879.2505    	2628.72729    
721.0000      	13869.6255    	2523.27271    
721.5000      	13860.0139    	2511.90918    
722.0000      	13850.4155    	2564.36353    
722.5000      	13840.8304    	2150.09082    
723.0000      	13831.2586    	2450.36353    
723.5000      	13821.7001    	2395.54541    
724.0000      	13812.1547    	2266.18188    
724.5000      	13802.6225    	2256.45459    
725.0000      	13793.1034    	2534.90918    
725.5000      	13783.5975    	2502.72729    
726.0000      	13774.1047    	2405.18188    
726.5000      	13764.6249    	2583.72729    
727.0000      	13755.1582    	2367.18188    
727.5000      	13745.7045    	2440.54541    
728.0000      	13736.2637    	2585.45459    
728.5000      	13726.8360    	2594.00000    
729.0000      	13717.4211    	2641.54541    
729.5000      	13708.0192    	2583.90918    
730.0000      	13698.6301    	2624.81812    
730.5000      	13689.2539    	2577.63647    
731.0000      	13679.8906    	2665.36353    
731.5000      	13670.5400    	2584.09082    
732.0000      	13661.2022    	2531.45459    
732.5000      	13651.8771    	2727.63647    
733.0000      	13642.5648    	2551.45459    
733.5000      	13633.2652    	2733.18188    
734.0000      	13623.9782    	2684.18188    
734.5000      	13614.7039    	2465.45459    
735.0000      	13605.4422    	2679.81812    
735.5000      	13596.1931    	2514.36353    
736.0000      	13586.9565    	2625.72729    
736.5000      	13577.7325    	2805.18188    
737.0000      	13568.5210    	2649.36353    
737.5000      	13559.3220    	2478.54541    
738.0000      	13550.1355    	2520.27271    
738.5000      	13540.9614    	2444.27271    
739.0000      	13531.7997    	2303.54541    
739.5000      	13522.6504    	2401.63647    
740.0000      	13513.5135    	2447.81812    
740.5000      	13504.3889    	2225.45459    
741.0000      	13495.2767    	2521.18188    
741.5000      	13486.1767    	2820.27271    
742.0000      	13477.0889    	2963.90918    
742.5000      	13468.0135    	2377.36353    
743.0000      	13458.9502    	2465.63647    
743.5000      	13449.8991    	2551.72729    
744.0000      	13440.8602    	2510.18188    
744.5000      	13431.8334    	2689.45459    
745.0000      	13422.8188    	2514.09082    
745.5000      	13413.8162    	2302.90918    
746.0000      	13404.8257    	2337.09082    
746.5000      	13395.8473    	2540.54541    
747.0000      	13386.8809    	2343.09082    
747.5000      	13377.9264    	2608.00000    
748.0000      	13368.9840    	2426.36353    
748.5000      	13360.0534    	2532.36353    
749.0000      	13351.1348    	2431.36353    
749.5000      	13342.2282    	2351.45459    
750.0000      	13333.3333    	2384.72729    
750.5000      	13324.4504    	2530.72729    
751.0000      	13315.5792    	2654.54541    
751.5000      	13306.7199    	2743.90918    
752.0000      	13297.8723    	2898.18188    
752.5000      	13289.0365    	2913.90918    
753.0000      	13280.2125    	3030.09082    
753.5000      	13271.4001    	2734.81812    
754.0000      	13262.5995    	2550.63647    
754.5000      	13253.8105    	2738.54541    
755.0000      	13245.0331    	2600.63647    
755.5000      	13236.2674    	2519.00000    
756.0000      	13227.5132    	2592.63647    
756.5000      	13218.7707    	2722.36353    
757.0000      	13210.0396    	2570.09082    
757.5000      	13201.3201    	2526.72729    
758.0000      	13192.6121    	2668.90918    
758.5000      	13183.9156    	2710.00000    
759.0000      	13175.2306    	2927.27271    
759.5000      	13166.5569    	2440.27271    
760.0000      	13157.8947    	2612.81812    
760.5000      	13149.2439    	2923.54541    
761.0000      	13140.6045    	2396.45459    
761.5000      	13131.9764    	2829.81812    
762.0000      	13123.3596    	2580.09082    
762.5000      	13114.7541    	2521.54541    
763.0000      	13106.1599    	2523.72729    
763.5000      	13097.5769    	2635.09082    
764.0000      	13089.0052    	2587.00000    
764.5000      	13080.4447    	2325.09082    
765.0000      	13071.8954    	2403.63647    
765.5000      	13063.3573    	2595.63647    
766.0000      	13054.8303    	2663.27271    
766.5000      	13046.3144    	2726.72729    
767.0000      	13037.8096    	2568.18188    
767.5000      	13029.3160    	2249.36353    
768.0000      	13020.8333    	2610.09082    
768.5000      	13012.3617    	2779.45459    
769.0000      	13003.9012    	2684.27271    
769.5000      	12995.4516    	2683.18188    
770.0000      	12987.0130    	2624.90918    
770.5000      	12978.5853    	2560.45459    
771.0000      	12970.1686    	2726.36353    
771.5000      	12961.7628    	3012.72729    
772.0000      	12953.3679    	2536.72729    
772.5000      	12944.9838    	2544.00000    
773.0000      	12936.6106    	2601.81812    
773.5000      	12928.2482    	2660.18188    
774.0000      	12919.8966    	2652.90918    
774.5000      	12911.5558    	2500.18188    
775.0000      	12903.2258    	2586.36353    
775.5000      	12894.9065    	2625.81812    
776.0000      	12886.5979    	2601.90918    
776.5000      	12878.3001    	2507.81812    
777.0000      	12870.0129    	2542.00000    
777.5000      	12861.7363    	2344.90918    
778.0000      	12853.4704    	2502.81812    
778.5000      	12845.2152    	2878.54541    
779.0000      	12836.9705    	2730.72729    
779.5000      	12828.7364    	2780.09082    
780.0000      	12820.5128    	2456.27271    
780.5000      	12812.2998    	2385.27271    
781.0000      	12804.0973    	2495.90918    
781.5000      	12795.9053    	2719.54541    
782.0000      	12787.7238    	2636.00000    
782.5000      	12779.5527    	2470.09082    
783.0000      	12771.3921    	2364.45459    
783.5000      	12763.2419    	2479.63647    
784.0000      	12755.1020    	2383.00000    
784.5000      	12746.9726    	2799.54541    
785.0000      	12738.8535    	2553.72729    
785.5000      	12730.7447    	2531.27271    
786.0000      	12722.6463    	2473.18188    
786.5000      	12714.5582    	2469.45459    
787.0000      	12706.4803    	2776.81812    
787.5000      	12698.4127    	2585.18188    
788.0000      	12690.3553    	2928.45459    
788.5000      	12682.3082    	2594.00000    
789.0000      	12674.2712    	2712.90918    
789.5000      	12666.2445    	2613.90918    
790.0000      	12658.2278    	2529.00000    
790.5000      	12650.2214    	2550.72729    
791.0000      	12642.2250    	2433.54541    
791.5000      	12634.2388    	2533.81812    
792.0000      	12626.2626    	2664.36353    
792.5000      	12618.2965    	2598.45459    
793.0000      	12610.3405    	2484.36353    
793.5000      	12602.3945    	2393.54541    
794.0000      	12594.4584    	2700.18188    
794.5000      	12586.5324    	2721.36353    
795.0000      	12578.6164    	2759.54541    
795.5000      	12570.7102    	2669.63647    
796.0000      	12562.8141    	2450.90918    
796.5000      	12554.9278    	2447.81812    
797.0000      	12547.0514    	2699.27271    
797.5000      	12539.1850    	2562.90918    
798.0000      	12531.3283    	2586.90918    
798.5000      	12523.4815    	2419.72729    
799.0000      	12515.6446    	2364.36353    
799.5000      	12507.8174    	2646.36353    
800.0000      	12500.0000    	2830.72729    
