Unit Serial No : 240-LV0P465-EU
Integration Time : 113 ms
Time Average: 11
Binning Average: 0
FFT Smoothing: 0%
Project Name : Project Name
Sample Name : Sample Name
Measurement No : 1
Measurement Time : 09/18/2007   09:22:52

Wavelength(nm)	Wavenumber(1/cm)	Intensity(Counts)
350.0000      	28571.4286    	2081.00000    
350.5000      	28530.6705    	2039.72729    
351.0000      	28490.0285    	2016.18176    
351.5000      	28449.5021    	2046.36365    
352.0000      	28409.0909    	2036.54541    
352.5000      	28368.7943    	1987.81824    
353.0000      	28328.6119    	1922.09094    
353.5000      	28288.5431    	2024.09094    
354.0000      	28248.5876    	1914.27271    
354.5000      	28208.7447    	1912.90906    
355.0000      	28169.0141    	1961.09094    
355.5000      	28129.3952    	1978.72729    
356.0000      	28089.8876    	1840.18176    
356.5000      	28050.4909    	1917.27271    
357.0000      	28011.2045    	1932.18176    
357.5000      	27972.0280    	1930.81824    
358.0000      	27932.9609    	1947.27271    
358.5000      	27894.0028    	2156.81812    
359.0000      	27855.1532    	1946.45459    
359.5000      	27816.4117    	2012.27271    
360.0000      	27777.7778    	1963.81824    
360.5000      	27739.2510    	1999.72729    
361.0000      	27700.8310    	1977.18176    
361.5000      	27662.5173    	2097.72729    
362.0000      	27624.3094    	1983.90906    
362.5000      	27586.2069    	2055.81812    
363.0000      	27548.2094    	2064.63647    
363.5000      	27510.3164    	1924.54541    
364.0000      	27472.5275    	1816.54541    
364.5000      	27434.8422    	1864.63635    
365.0000      	27397.2603    	1914.63635    
365.5000      	27359.7811    	2005.36365    
366.0000      	27322.4044    	2032.36365    
366.5000      	27285.1296    	1984.63635    
367.0000      	27247.9564    	1979.45459    
367.5000      	27210.8844    	2073.45459    
368.0000      	27173.9130    	1964.72729    
368.5000      	27137.0421    	2122.27271    
369.0000      	27100.2710    	1969.09094    
369.5000      	27063.5995    	1970.27271    
370.0000      	27027.0270    	2112.63647    
370.5000      	26990.5533    	1872.90906    
371.0000      	26954.1779    	2011.09094    
371.5000      	26917.9004    	1930.09094    
372.0000      	26881.7204    	1941.45459    
372.5000      	26845.6376    	1986.54541    
373.0000      	26809.6515    	1889.72729    
373.5000      	26773.7617    	2012.63635    
374.0000      	26737.9679    	2155.54541    
374.5000      	26702.2697    	1993.36365    
375.0000      	26666.6667    	1937.36365    
375.5000      	26631.1585    	1973.18176    
376.0000      	26595.7447    	1961.00000    
376.5000      	26560.4250    	1904.18176    
377.0000      	26525.1989    	1981.63635    
377.5000      	26490.0662    	1996.18176    
378.0000      	26455.0265    	1932.18176    
378.5000      	26420.0793    	1927.81824    
379.0000      	26385.2243    	1977.81824    
379.5000      	26350.4611    	1984.00000    
380.0000      	26315.7895    	1913.00000    
380.5000      	26281.2089    	1962.72729    
381.0000      	26246.7192    	1947.81824    
381.5000      	26212.3198    	1911.63635    
382.0000      	26178.0105    	1973.27271    
382.5000      	26143.7908    	2041.18176    
383.0000      	26109.6606    	2062.81812    
383.5000      	26075.6193    	1970.00000    
384.0000      	26041.6667    	2126.27271    
384.5000      	26007.8023    	1947.09094    
385.0000      	25974.0260    	1952.18176    
385.5000      	25940.3372    	1945.18176    
386.0000      	25906.7358    	1893.54541    
386.5000      	25873.2212    	1949.00000    
387.0000      	25839.7933    	2004.09094    
387.5000      	25806.4516    	1912.90906    
388.0000      	25773.1959    	2000.00000    
388.5000      	25740.0257    	2017.90906    
389.0000      	25706.9409    	1990.81824    
389.5000      	25673.9409    	1997.72729    
390.0000      	25641.0256    	1944.18176    
390.5000      	25608.1946    	1954.90906    
391.0000      	25575.4476    	1991.45459    
391.5000      	25542.7842    	2086.18188    
392.0000      	25510.2041    	1945.72729    
392.5000      	25477.7070    	1920.45459    
393.0000      	25445.2926    	2036.36365    
393.5000      	25412.9606    	1914.81824    
394.0000      	25380.7107    	2105.63647    
394.5000      	25348.5425    	1927.90906    
395.0000      	25316.4557    	2006.81824    
395.5000      	25284.4501    	1965.18176    
396.0000      	25252.5253    	2136.45459    
396.5000      	25220.6810    	1977.36365    
397.0000      	25188.9169    	2054.18188    
397.5000      	25157.2327    	2046.09094    
398.0000      	25125.6281    	1980.36365    
398.5000      	25094.1029    	1943.09094    
399.0000      	25062.6566    	2005.09094    
399.5000      	25031.2891    	2100.09082    
400.0000      	25000.0000    	2035.54541    
400.5000      	24968.7890    	1942.63635    
401.0000      	24937.6559    	1944.54541    
401.5000      	24906.6002    	2037.27271    
402.0000      	24875.6219    	2112.45459    
402.5000      	24844.7205    	2002.09094    
403.0000      	24813.8958    	1876.09094    
403.5000      	24783.1475    	2005.09094    
404.0000      	24752.4752    	1984.36365    
404.5000      	24721.8789    	2078.54541    
405.0000      	24691.3580    	2001.63635    
405.5000      	24660.9125    	1974.18176    
406.0000      	24630.5419    	1966.45459    
406.5000      	24600.2460    	1914.90906    
407.0000      	24570.0246    	2032.63635    
407.5000      	24539.8773    	1956.45459    
408.0000      	24509.8039    	1926.18176    
408.5000      	24479.8042    	1961.18176    
409.0000      	24449.8778    	1915.00000    
409.5000      	24420.0244    	1969.18176    
410.0000      	24390.2439    	1987.81824    
410.5000      	24360.5359    	2106.72729    
411.0000      	24330.9002    	2072.00000    
411.5000      	24301.3366    	2067.63647    
412.0000      	24271.8447    	2117.18188    
412.5000      	24242.4242    	1977.90906    
413.0000      	24213.0751    	2090.09082    
413.5000      	24183.7969    	2045.54541    
414.0000      	24154.5894    	2035.18176    
414.5000      	24125.4524    	1994.27271    
415.0000      	24096.3855    	1943.63635    
415.5000      	24067.3887    	2009.81824    
416.0000      	24038.4615    	2083.72729    
416.5000      	24009.6038    	2085.00000    
417.0000      	23980.8153    	2058.90918    
417.5000      	23952.0958    	2007.72729    
418.0000      	23923.4450    	2143.54541    
418.5000      	23894.8626    	2113.27271    
419.0000      	23866.3484    	2111.45459    
419.5000      	23837.9023    	2079.54541    
420.0000      	23809.5238    	2161.18188    
420.5000      	23781.2128    	2218.54541    
421.0000      	23752.9691    	2169.81812    
421.5000      	23724.7924    	2134.54541    
422.0000      	23696.6825    	2285.27271    
422.5000      	23668.6391    	2274.36353    
423.0000      	23640.6619    	2294.27271    
423.5000      	23612.7509    	2245.36353    
424.0000      	23584.9057    	2360.45459    
424.5000      	23557.1260    	2461.36353    
425.0000      	23529.4118    	2379.54541    
425.5000      	23501.7626    	2395.45459    
426.0000      	23474.1784    	2431.45459    
426.5000      	23446.6589    	2478.45459    
427.0000      	23419.2037    	2560.18188    
427.5000      	23391.8129    	2698.81812    
428.0000      	23364.4860    	2650.00000    
428.5000      	23337.2229    	2700.81812    
429.0000      	23310.0233    	2989.81812    
429.5000      	23282.8871    	2952.45459    
430.0000      	23255.8140    	2916.90918    
430.5000      	23228.8037    	2998.27271    
431.0000      	23201.8561    	3159.36353    
431.5000      	23174.9710    	3094.63647    
432.0000      	23148.1481    	3177.81812    
432.5000      	23121.3873    	3325.63647    
433.0000      	23094.6882    	3325.63647    
433.5000      	23068.0507    	3520.00000    
434.0000      	23041.4747    	3770.63647    
434.5000      	23014.9597    	3750.00000    
435.0000      	22988.5057    	4068.72729    
435.5000      	22962.1125    	4361.27295    
436.0000      	22935.7798    	4414.09082    
436.5000      	22909.5074    	4512.54541    
437.0000      	22883.2952    	4691.36377    
437.5000      	22857.1429    	4959.45459    
438.0000      	22831.0502    	5152.63623    
438.5000      	22805.0171    	5334.63623    
439.0000      	22779.0433    	5567.00000    
439.5000      	22753.1286    	5884.63623    
440.0000      	22727.2727    	6259.81836    
440.5000      	22701.4756    	6332.63623    
441.0000      	22675.7370    	6694.36377    
441.5000      	22650.0566    	6673.36377    
442.0000      	22624.4344    	7042.81836    
442.5000      	22598.8701    	7390.00000    
443.0000      	22573.3634    	7567.45459    
443.5000      	22547.9143    	7972.90918    
444.0000      	22522.5225    	8124.36377    
444.5000      	22497.1879    	8459.90918    
445.0000      	22471.9101    	9100.45410    
445.5000      	22446.6891    	9173.09082    
446.0000      	22421.5247    	9657.63672    
446.5000      	22396.4166    	10536.18164   
447.0000      	22371.3647    	10647.09082   
447.5000      	22346.3687    	10689.00000   
448.0000      	22321.4286    	11268.90918   
448.5000      	22296.5440    	11757.27246   
449.0000      	22271.7149    	12316.63672   
449.5000      	22246.9410    	12727.72754   
450.0000      	22222.2222    	13363.27246   
450.5000      	22197.5583    	13576.09082   
451.0000      	22172.9490    	13686.00000   
451.5000      	22148.3942    	14108.72754   
452.0000      	22123.8938    	14126.18164   
452.5000      	22099.4475    	14035.36328   
453.0000      	22075.0552    	14545.54590   
453.5000      	22050.7166    	14985.09082   
454.0000      	22026.4317    	15557.36328   
454.5000      	22002.2002    	15650.63672   
455.0000      	21978.0220    	16069.90918   
455.5000      	21953.8968    	15973.81836   
456.0000      	21929.8246    	16667.36328   
456.5000      	21905.8050    	17246.27344   
457.0000      	21881.8381    	17763.63672   
457.5000      	21857.9235    	17774.18164   
458.0000      	21834.0611    	18175.81836   
458.5000      	21810.2508    	17764.72656   
459.0000      	21786.4924    	18030.18164   
459.5000      	21762.7856    	18155.45508   
460.0000      	21739.1304    	18606.63672   
460.5000      	21715.5266    	18097.18164   
461.0000      	21691.9740    	18208.36328   
461.5000      	21668.4724    	18078.36328   
462.0000      	21645.0216    	18488.54492   
462.5000      	21621.6216    	18488.72656   
463.0000      	21598.2721    	17867.90820   
463.5000      	21574.9730    	17673.36328   
464.0000      	21551.7241    	17424.00000   
464.5000      	21528.5253    	17698.45508   
465.0000      	21505.3763    	18176.72656   
465.5000      	21482.2771    	17255.18164   
466.0000      	21459.2275    	17705.27344   
466.5000      	21436.2272    	16621.09180   
467.0000      	21413.2762    	16763.27344   
467.5000      	21390.3743    	16754.45508   
468.0000      	21367.5214    	16350.45410   
468.5000      	21344.7172    	15808.81836   
469.0000      	21321.9616    	16217.18164   
469.5000      	21299.2545    	15613.18164   
470.0000      	21276.5957    	15483.63672   
470.5000      	21253.9851    	15450.72754   
471.0000      	21231.4225    	15154.27246   
471.5000      	21208.9077    	14368.09082   
472.0000      	21186.4407    	14045.81836   
472.5000      	21164.0212    	13930.81836   
473.0000      	21141.6490    	13814.81836   
473.5000      	21119.3242    	13042.90918   
474.0000      	21097.0464    	13076.18164   
474.5000      	21074.8156    	12421.27246   
475.0000      	21052.6316    	11889.45410   
475.5000      	21030.4942    	11863.27246   
476.0000      	21008.4034    	11294.54590   
476.5000      	20986.3589    	11179.09082   
477.0000      	20964.3606    	10922.54590   
477.5000      	20942.4084    	10600.54590   
478.0000      	20920.5021    	10476.09082   
478.5000      	20898.6416    	10192.81836   
479.0000      	20876.8267    	9761.00000    
479.5000      	20855.0574    	9719.00000    
480.0000      	20833.3333    	9728.18164    
480.5000      	20811.6545    	9530.54590    
481.0000      	20790.0208    	9311.72754    
481.5000      	20768.4320    	8862.81836    
482.0000      	20746.8880    	8841.81836    
482.5000      	20725.3886    	8809.09082    
483.0000      	20703.9337    	8480.81836    
483.5000      	20682.5233    	8351.27246    
484.0000      	20661.1570    	8022.09082    
484.5000      	20639.8349    	7727.27295    
485.0000      	20618.5567    	7619.18164    
485.5000      	20597.3223    	7379.63623    
486.0000      	20576.1317    	7092.45459    
486.5000      	20554.9846    	6672.09082    
487.0000      	20533.8809    	6464.72705    
487.5000      	20512.8205    	6215.54541    
488.0000      	20491.8033    	6256.90918    
488.5000      	20470.8291    	5811.45459    
489.0000      	20449.8978    	5596.63623    
489.5000      	20429.0092    	5562.63623    
490.0000      	20408.1633    	5354.18164    
490.5000      	20387.3598    	5179.00000    
491.0000      	20366.5988    	5079.09082    
491.5000      	20345.8800    	5030.63623    
492.0000      	20325.2033    	4791.18164    
492.5000      	20304.5685    	4640.72705    
493.0000      	20283.9757    	4724.72705    
493.5000      	20263.4245    	4430.54541    
494.0000      	20242.9150    	4431.36377    
494.5000      	20222.4469    	4357.72705    
495.0000      	20202.0202    	4256.00000    
495.5000      	20181.6347    	4049.72729    
496.0000      	20161.2903    	4094.45459    
496.5000      	20140.9869    	4031.63647    
497.0000      	20120.7243    	3842.18188    
497.5000      	20100.5025    	3910.72729    
498.0000      	20080.3213    	3690.27271    
498.5000      	20060.1805    	3587.45459    
499.0000      	20040.0802    	3725.63647    
499.5000      	20020.0200    	3552.90918    
500.0000      	20000.0000    	3364.09082    
500.5000      	19980.0200    	3324.09082    
501.0000      	19960.0798    	3273.45459    
501.5000      	19940.1795    	3137.09082    
502.0000      	19920.3187    	3133.72729    
502.5000      	19900.4975    	3022.27271    
503.0000      	19880.7157    	2835.63647    
503.5000      	19860.9732    	2837.36353    
504.0000      	19841.2698    	2811.81812    
504.5000      	19821.6056    	2889.81812    
505.0000      	19801.9802    	2783.90918    
505.5000      	19782.3937    	2700.45459    
506.0000      	19762.8458    	2646.63647    
506.5000      	19743.3366    	2520.54541    
507.0000      	19723.8659    	2617.72729    
507.5000      	19704.4335    	2672.18188    
508.0000      	19685.0394    	2665.63647    
508.5000      	19665.6834    	2443.72729    
509.0000      	19646.3654    	2486.27271    
509.5000      	19627.0854    	2655.54541    
510.0000      	19607.8431    	2730.00000    
510.5000      	19588.6386    	2478.54541    
511.0000      	19569.4716    	2445.00000    
511.5000      	19550.3421    	2543.09082    
512.0000      	19531.2500    	2569.72729    
512.5000      	19512.1951    	2302.72729    
513.0000      	19493.1774    	2314.81812    
513.5000      	19474.1967    	2280.90918    
514.0000      	19455.2529    	2340.81812    
514.5000      	19436.3460    	2267.00000    
515.0000      	19417.4757    	2203.90918    
515.5000      	19398.6421    	2341.36353    
516.0000      	19379.8450    	2204.54541    
516.5000      	19361.0842    	2236.90918    
517.0000      	19342.3598    	2156.90918    
517.5000      	19323.6715    	2224.45459    
518.0000      	19305.0193    	2117.72729    
518.5000      	19286.4031    	2077.36353    
519.0000      	19267.8227    	2013.09094    
519.5000      	19249.2782    	2120.18188    
520.0000      	19230.7692    	2092.90918    
520.5000      	19212.2959    	2089.81812    
521.0000      	19193.8580    	2095.63647    
521.5000      	19175.4554    	2039.90906    
522.0000      	19157.0881    	2087.27271    
522.5000      	19138.7560    	2119.27271    
523.0000      	19120.4589    	2105.18188    
523.5000      	19102.1968    	2026.54541    
524.0000      	19083.9695    	2039.81824    
524.5000      	19065.7769    	1997.72729    
525.0000      	19047.6190    	2054.72729    
525.5000      	19029.4957    	1953.00000    
526.0000      	19011.4068    	1955.90906    
526.5000      	18993.3523    	2166.18188    
527.0000      	18975.3321    	1990.27271    
527.5000      	18957.3460    	1863.81824    
528.0000      	18939.3939    	2008.36365    
528.5000      	18921.4759    	2063.72729    
529.0000      	18903.5917    	1975.63635    
529.5000      	18885.7413    	1997.18176    
530.0000      	18867.9245    	1942.63635    
530.5000      	18850.1414    	1933.00000    
531.0000      	18832.3917    	2053.09082    
531.5000      	18814.6754    	2007.90906    
532.0000      	18796.9925    	2028.36365    
532.5000      	18779.3427    	1959.72729    
533.0000      	18761.7261    	1936.36365    
533.5000      	18744.1425    	1908.54541    
534.0000      	18726.5918    	1964.63635    
534.5000      	18709.0739    	1947.00000    
535.0000      	18691.5888    	2075.09082    
535.5000      	18674.1363    	1915.45459    
536.0000      	18656.7164    	2039.90906    
536.5000      	18639.3290    	1939.72729    
537.0000      	18621.9739    	1944.90906    
537.5000      	18604.6512    	1954.36365    
538.0000      	18587.3606    	1921.36365    
538.5000      	18570.1021    	1889.63635    
539.0000      	18552.8757    	1902.18176    
539.5000      	18535.6812    	1979.45459    
540.0000      	18518.5185    	1858.63635    
540.5000      	18501.3876    	1922.81824    
541.0000      	18484.2884    	2007.09094    
541.5000      	18467.2207    	1926.27271    
542.0000      	18450.1845    	1989.72729    
542.5000      	18433.1797    	1863.81824    
543.0000      	18416.2063    	1964.72729    
543.5000      	18399.2640    	1981.54541    
544.0000      	18382.3529    	1916.27271    
544.5000      	18365.4729    	1872.72729    
545.0000      	18348.6239    	2029.27271    
545.5000      	18331.8057    	1941.09094    
546.0000      	18315.0183    	2050.90918    
546.5000      	18298.2617    	1917.18176    
547.0000      	18281.5356    	1924.27271    
547.5000      	18264.8402    	1940.18176    
548.0000      	18248.1752    	1931.63635    
548.5000      	18231.5406    	1873.90906    
549.0000      	18214.9362    	1975.18176    
549.5000      	18198.3621    	2004.63635    
550.0000      	18181.8182    	1918.00000    
550.5000      	18165.3043    	1953.81824    
551.0000      	18148.8203    	1821.09094    
551.5000      	18132.3663    	1918.90906    
552.0000      	18115.9420    	1879.18176    
552.5000      	18099.5475    	1913.00000    
553.0000      	18083.1826    	1847.63635    
553.5000      	18066.8473    	2108.72729    
554.0000      	18050.5415    	2002.45459    
554.5000      	18034.2651    	1948.00000    
555.0000      	18018.0180    	1870.36365    
555.5000      	18001.8002    	1875.54541    
556.0000      	17985.6115    	1829.90906    
556.5000      	17969.4519    	1815.27271    
557.0000      	17953.3214    	1871.90906    
557.5000      	17937.2197    	1903.45459    
558.0000      	17921.1470    	1925.90906    
558.5000      	17905.1030    	1921.36365    
559.0000      	17889.0877    	1936.81824    
559.5000      	17873.1010    	2061.45459    
560.0000      	17857.1429    	1996.27271    
560.5000      	17841.2132    	1895.36365    
561.0000      	17825.3119    	2010.63635    
561.5000      	17809.4390    	1818.63635    
562.0000      	17793.5943    	1983.27271    
562.5000      	17777.7778    	1969.27271    
563.0000      	17761.9893    	1888.81824    
563.5000      	17746.2289    	1824.36365    
564.0000      	17730.4965    	1965.09094    
564.5000      	17714.7919    	1972.09094    
565.0000      	17699.1150    	1845.18176    
565.5000      	17683.4660    	1839.09094    
566.0000      	17667.8445    	1981.90906    
566.5000      	17652.2507    	1857.45459    
567.0000      	17636.6843    	1863.72729    
567.5000      	17621.1454    	1894.09094    
568.0000      	17605.6338    	1923.54541    
568.5000      	17590.1495    	1862.63635    
569.0000      	17574.6924    	1925.00000    
569.5000      	17559.2625    	1869.72729    
570.0000      	17543.8596    	1860.54541    
570.5000      	17528.4838    	1822.63635    
571.0000      	17513.1349    	1918.90906    
571.5000      	17497.8128    	1979.81824    
572.0000      	17482.5175    	1862.09094    
572.5000      	17467.2489    	2024.54541    
573.0000      	17452.0070    	1819.27271    
573.5000      	17436.7916    	1935.00000    
574.0000      	17421.6028    	1894.45459    
574.5000      	17406.4404    	1867.09094    
575.0000      	17391.3043    	1883.09094    
575.5000      	17376.1946    	1864.27271    
576.0000      	17361.1111    	1935.72729    
576.5000      	17346.0538    	1849.36365    
577.0000      	17331.0225    	1869.63635    
577.5000      	17316.0173    	1811.00000    
578.0000      	17301.0381    	1902.81824    
578.5000      	17286.0847    	1862.54541    
579.0000      	17271.1572    	1955.27271    
579.5000      	17256.2554    	1881.54541    
580.0000      	17241.3793    	2248.27271    
580.5000      	17226.5289    	2005.63635    
581.0000      	17211.7040    	1936.36365    
581.5000      	17196.9046    	1823.45459    
582.0000      	17182.1306    	1913.81824    
582.5000      	17167.3820    	1946.18176    
583.0000      	17152.6587    	1865.36365    
583.5000      	17137.9606    	1999.45459    
584.0000      	17123.2877    	1857.45459    
584.5000      	17108.6399    	1800.54541    
585.0000      	17094.0171    	1827.81824    
585.5000      	17079.4193    	1771.27271    
586.0000      	17064.8464    	1905.18176    
586.5000      	17050.2984    	1859.00000    
587.0000      	17035.7751    	1889.27271    
587.5000      	17021.2766    	1899.18176    
588.0000      	17006.8027    	1976.90906    
588.5000      	16992.3534    	1954.90906    
589.0000      	16977.9287    	1955.81824    
589.5000      	16963.5284    	1940.00000    
590.0000      	16949.1525    	2084.54541    
590.5000      	16934.8010    	1938.63635    
591.0000      	16920.4738    	1915.81824    
591.5000      	16906.1708    	2014.81824    
592.0000      	16891.8919    	1914.54541    
592.5000      	16877.6371    	1978.45459    
593.0000      	16863.4064    	1876.45459    
593.5000      	16849.1997    	1881.81824    
594.0000      	16835.0168    	1793.45459    
594.5000      	16820.8579    	2102.00000    
595.0000      	16806.7227    	1926.27271    
595.5000      	16792.6113    	1820.63635    
596.0000      	16778.5235    	2012.45459    
596.5000      	16764.4593    	1957.54541    
597.0000      	16750.4188    	1856.72729    
597.5000      	16736.4017    	1864.36365    
598.0000      	16722.4080    	1999.63635    
598.5000      	16708.4378    	1993.09094    
599.0000      	16694.4908    	1998.00000    
599.5000      	16680.5671    	1900.45459    
600.0000      	16666.6667    	1939.90906    
600.5000      	16652.7893    	1976.27271    
601.0000      	16638.9351    	2005.90906    
601.5000      	16625.1039    	1881.18176    
602.0000      	16611.2957    	1841.54541    
602.5000      	16597.5104    	1854.63635    
603.0000      	16583.7479    	1858.00000    
603.5000      	16570.0083    	1846.90906    
604.0000      	16556.2914    	1868.81824    
604.5000      	16542.5972    	2039.54541    
605.0000      	16528.9256    	2052.36353    
605.5000      	16515.2766    	1897.81824    
606.0000      	16501.6502    	1852.45459    
606.5000      	16488.0462    	1912.36365    
607.0000      	16474.4646    	1892.63635    
607.5000      	16460.9053    	2000.81824    
608.0000      	16447.3684    	2085.54541    
608.5000      	16433.8537    	1933.54541    
609.0000      	16420.3612    	2030.27271    
609.5000      	16406.8909    	1876.18176    
610.0000      	16393.4426    	1977.81824    
610.5000      	16380.0164    	2105.36353    
611.0000      	16366.6121    	1833.18176    
611.5000      	16353.2298    	1883.45459    
612.0000      	16339.8693    	1907.63635    
612.5000      	16326.5306    	2000.81824    
613.0000      	16313.2137    	1888.72729    
613.5000      	16299.9185    	2034.45459    
614.0000      	16286.6450    	1888.63635    
614.5000      	16273.3930    	1926.36365    
615.0000      	16260.1626    	1889.90906    
615.5000      	16246.9537    	1860.09094    
616.0000      	16233.7662    	1910.63635    
616.5000      	16220.6002    	1870.90906    
617.0000      	16207.4554    	1946.09094    
617.5000      	16194.3320    	1873.54541    
618.0000      	16181.2298    	1755.36365    
618.5000      	16168.1487    	1937.27271    
619.0000      	16155.0889    	1933.72729    
619.5000      	16142.0500    	1867.81824    
620.0000      	16129.0323    	1919.27271    
620.5000      	16116.0355    	2007.54541    
621.0000      	16103.0596    	1870.81824    
621.5000      	16090.1046    	1794.63635    
622.0000      	16077.1704    	1855.00000    
622.5000      	16064.2570    	1993.81824    
623.0000      	16051.3644    	1915.72729    
623.5000      	16038.4924    	1863.18176    
624.0000      	16025.6410    	1930.09094    
624.5000      	16012.8102    	2067.18188    
625.0000      	16000.0000    	1955.27271    
625.5000      	15987.2102    	1883.45459    
626.0000      	15974.4409    	1940.45459    
626.5000      	15961.6919    	1867.36365    
627.0000      	15948.9633    	1937.00000    
627.5000      	15936.2550    	1947.63635    
628.0000      	15923.5669    	1988.54541    
628.5000      	15910.8990    	1838.81824    
629.0000      	15898.2512    	1955.72729    
629.5000      	15885.6235    	1825.36365    
630.0000      	15873.0159    	1810.72729    
630.5000      	15860.4282    	1885.54541    
631.0000      	15847.8605    	1882.18176    
631.5000      	15835.3127    	1868.63635    
632.0000      	15822.7848    	1939.09094    
632.5000      	15810.2767    	1924.36365    
633.0000      	15797.7883    	1838.09094    
633.5000      	15785.3197    	1801.00000    
634.0000      	15772.8707    	2025.18176    
634.5000      	15760.4413    	1965.18176    
635.0000      	15748.0315    	1903.45459    
635.5000      	15735.6412    	2003.63635    
636.0000      	15723.2704    	1948.90906    
636.5000      	15710.9191    	1861.18176    
637.0000      	15698.5871    	2035.18176    
637.5000      	15686.2745    	1981.27271    
638.0000      	15673.9812    	1926.90906    
638.5000      	15661.7071    	1861.18176    
639.0000      	15649.4523    	1996.72729    
639.5000      	15637.2166    	1925.45459    
640.0000      	15625.0000    	2058.09082    
640.5000      	15612.8025    	2023.63635    
641.0000      	15600.6240    	1911.54541    
641.5000      	15588.4645    	1971.54541    
642.0000      	15576.3240    	1788.81824    
642.5000      	15564.2023    	1950.09094    
643.0000      	15552.0995    	1782.27271    
643.5000      	15540.0155    	1783.18176    
644.0000      	15527.9503    	1877.36365    
644.5000      	15515.9038    	1928.36365    
645.0000      	15503.8760    	1860.00000    
645.5000      	15491.8668    	1937.63635    
646.0000      	15479.8762    	1867.18176    
646.5000      	15467.9041    	1892.45459    
647.0000      	15455.9505    	1851.45459    
647.5000      	15444.0154    	1919.81824    
648.0000      	15432.0988    	1917.72729    
648.5000      	15420.2005    	2001.18176    
649.0000      	15408.3205    	1916.09094    
649.5000      	15396.4588    	1968.00000    
650.0000      	15384.6154    	1903.54541    
650.5000      	15372.7902    	1869.18176    
651.0000      	15360.9831    	1874.00000    
651.5000      	15349.1942    	1805.27271    
652.0000      	15337.4233    	1987.09094    
652.5000      	15325.6705    	1870.45459    
653.0000      	15313.9357    	1830.18176    
653.5000      	15302.2188    	1897.63635    
654.0000      	15290.5199    	1863.72729    
654.5000      	15278.8388    	1809.72729    
655.0000      	15267.1756    	1769.81824    
655.5000      	15255.5301    	1873.90906    
656.0000      	15243.9024    	1899.00000    
656.5000      	15232.2925    	1869.72729    
657.0000      	15220.7002    	1833.45459    
657.5000      	15209.1255    	2052.36353    
658.0000      	15197.5684    	1914.18176    
658.5000      	15186.0289    	1868.18176    
659.0000      	15174.5068    	1813.36365    
659.5000      	15163.0023    	1982.00000    
660.0000      	15151.5152    	1824.00000    
660.5000      	15140.0454    	1855.00000    
661.0000      	15128.5930    	1979.72729    
661.5000      	15117.1580    	2018.54541    
662.0000      	15105.7402    	1942.90906    
662.5000      	15094.3396    	2021.81824    
663.0000      	15082.9563    	1918.09094    
663.5000      	15071.5901    	1941.18176    
664.0000      	15060.2410    	1913.63635    
664.5000      	15048.9090    	1838.81824    
665.0000      	15037.5940    	1934.81824    
665.5000      	15026.2960    	1919.90906    
666.0000      	15015.0150    	1927.81824    
666.5000      	15003.7509    	1908.72729    
667.0000      	14992.5037    	1907.45459    
667.5000      	14981.2734    	1990.27271    
668.0000      	14970.0599    	1949.27271    
668.5000      	14958.8631    	1843.90906    
669.0000      	14947.6831    	1899.00000    
669.5000      	14936.5198    	1823.36365    
670.0000      	14925.3731    	1846.63635    
670.5000      	14914.2431    	1920.27271    
671.0000      	14903.1297    	1973.72729    
671.5000      	14892.0328    	1899.09094    
672.0000      	14880.9524    	1889.36365    
672.5000      	14869.8885    	1860.00000    
673.0000      	14858.8410    	1893.63635    
673.5000      	14847.8099    	1861.45459    
674.0000      	14836.7953    	1935.27271    
674.5000      	14825.7969    	2082.81812    
675.0000      	14814.8148    	2043.18176    
675.5000      	14803.8490    	1910.18176    
676.0000      	14792.8994    	1922.45459    
676.5000      	14781.9660    	1967.18176    
677.0000      	14771.0487    	2057.72729    
677.5000      	14760.1476    	1950.54541    
678.0000      	14749.2625    	1948.63635    
678.5000      	14738.3935    	1983.90906    
679.0000      	14727.5405    	2141.72729    
679.5000      	14716.7035    	1957.09094    
680.0000      	14705.8824    	1934.81824    
680.5000      	14695.0771    	1863.09094    
681.0000      	14684.2878    	1879.27271    
681.5000      	14673.5143    	1967.27271    
682.0000      	14662.7566    	1915.09094    
682.5000      	14652.0147    	1986.09094    
683.0000      	14641.2884    	1894.36365    
683.5000      	14630.5779    	1937.45459    
684.0000      	14619.8830    	1883.72729    
684.5000      	14609.2038    	1952.54541    
685.0000      	14598.5401    	1932.09094    
685.5000      	14587.8920    	1807.54541    
686.0000      	14577.2595    	1903.00000    
686.5000      	14566.6424    	1857.72729    
687.0000      	14556.0408    	1840.72729    
687.5000      	14545.4545    	1793.09094    
688.0000      	14534.8837    	1999.45459    
688.5000      	14524.3282    	2128.54541    
689.0000      	14513.7881    	1855.18176    
689.5000      	14503.2632    	1872.36365    
690.0000      	14492.7536    	2051.36353    
690.5000      	14482.2592    	1860.72729    
691.0000      	14471.7800    	1931.81824    
691.5000      	14461.3160    	1872.00000    
692.0000      	14450.8671    	1925.81824    
692.5000      	14440.4332    	2141.90918    
693.0000      	14430.0144    	1995.36365    
693.5000      	14419.6107    	1932.90906    
694.0000      	14409.2219    	2047.63635    
694.5000      	14398.8481    	1939.45459    
695.0000      	14388.4892    	1898.36365    
695.5000      	14378.1452    	1882.63635    
696.0000      	14367.8161    	1850.54541    
696.5000      	14357.5018    	1983.90906    
697.0000      	14347.2023    	1907.63635    
697.5000      	14336.9176    	1915.45459    
698.0000      	14326.6476    	1973.81824    
698.5000      	14316.3923    	1984.63635    
699.0000      	14306.1516    	1940.90906    
699.5000      	14295.9257    	1932.27271    
700.0000      	14285.7143    	1901.18176    
700.5000      	14275.5175    	1959.54541    
701.0000      	14265.3352    	2101.36353    
701.5000      	14255.1675    	1905.18176    
702.0000      	14245.0142    	1934.36365    
702.5000      	14234.8754    	1900.54541    
703.0000      	14224.7511    	1867.45459    
703.5000      	14214.6411    	1861.45459    
704.0000      	14204.5455    	1776.63635    
704.5000      	14194.4642    	1934.45459    
705.0000      	14184.3972    	1941.81824    
705.5000      	14174.3444    	1913.72729    
706.0000      	14164.3059    	2029.18176    
706.5000      	14154.2817    	2014.18176    
707.0000      	14144.2716    	1969.27271    
707.5000      	14134.2756    	1950.72729    
708.0000      	14124.2938    	1881.00000    
708.5000      	14114.3260    	1870.27271    
709.0000      	14104.3724    	1965.81824    
709.5000      	14094.4327    	2099.81812    
710.0000      	14084.5070    	1902.00000    
710.5000      	14074.5954    	1920.45459    
711.0000      	14064.6976    	1971.90906    
711.5000      	14054.8138    	1988.18176    
712.0000      	14044.9438    	1971.90906    
712.5000      	14035.0877    	1965.36365    
713.0000      	14025.2454    	1910.36365    
713.5000      	14015.4170    	2070.09082    
714.0000      	14005.6022    	1992.45459    
714.5000      	13995.8013    	2065.54541    
715.0000      	13986.0140    	1875.09094    
715.5000      	13976.2404    	1913.90906    
716.0000      	13966.4804    	1962.45459    
716.5000      	13956.7341    	1941.72729    
717.0000      	13947.0014    	1925.18176    
717.5000      	13937.2822    	1906.18176    
718.0000      	13927.5766    	1944.18176    
718.5000      	13917.8845    	1959.45459    
719.0000      	13908.2058    	1893.54541    
719.5000      	13898.5407    	1946.72729    
720.0000      	13888.8889    	2011.00000    
720.5000      	13879.2505    	1938.45459    
721.0000      	13869.6255    	1940.09094    
721.5000      	13860.0139    	1894.90906    
722.0000      	13850.4155    	1935.72729    
722.5000      	13840.8304    	1758.00000    
723.0000      	13831.2586    	1874.90906    
723.5000      	13821.7001    	1829.09094    
724.0000      	13812.1547    	1821.36365    
724.5000      	13802.6225    	1808.90906    
725.0000      	13793.1034    	1937.27271    
725.5000      	13783.5975    	1905.54541    
726.0000      	13774.1047    	1846.72729    
726.5000      	13764.6249    	1931.36365    
727.0000      	13755.1582    	1873.18176    
727.5000      	13745.7045    	1888.54541    
728.0000      	13736.2637    	1932.63635    
728.5000      	13726.8360    	1942.09094    
729.0000      	13717.4211    	1959.63635    
729.5000      	13708.0192    	1944.45459    
730.0000      	13698.6301    	1940.90906    
730.5000      	13689.2539    	1949.27271    
731.0000      	13679.8906    	1998.36365    
731.5000      	13670.5400    	1933.27271    
732.0000      	13661.2022    	1876.90906    
732.5000      	13651.8771    	1975.36365    
733.0000      	13642.5648    	1907.18176    
733.5000      	13633.2652    	2000.72729    
734.0000      	13623.9782    	1987.72729    
734.5000      	13614.7039    	1875.54541    
735.0000      	13605.4422    	1983.09094    
735.5000      	13596.1931    	1869.27271    
736.0000      	13586.9565    	1947.72729    
736.5000      	13577.7325    	2015.63635    
737.0000      	13568.5210    	2011.45459    
737.5000      	13559.3220    	1897.09094    
738.0000      	13550.1355    	1905.90906    
738.5000      	13540.9614    	1860.72729    
739.0000      	13531.7997    	1792.90906    
739.5000      	13522.6504    	1863.09094    
740.0000      	13513.5135    	1868.90906    
740.5000      	13504.3889    	1785.00000    
741.0000      	13495.2767    	1909.90906    
741.5000      	13486.1767    	2019.18176    
742.0000      	13477.0889    	2086.81812    
742.5000      	13468.0135    	1839.27271    
743.0000      	13458.9502    	1889.90906    
743.5000      	13449.8991    	1947.09094    
744.0000      	13440.8602    	1898.81824    
744.5000      	13431.8334    	1982.00000    
745.0000      	13422.8188    	1887.63635    
745.5000      	13413.8162    	1806.00000    
746.0000      	13404.8257    	1840.63635    
746.5000      	13395.8473    	1941.90906    
747.0000      	13386.8809    	1830.09094    
747.5000      	13377.9264    	1943.18176    
748.0000      	13368.9840    	1840.09094    
748.5000      	13360.0534    	1907.45459    
749.0000      	13351.1348    	1868.63635    
749.5000      	13342.2282    	1863.45459    
750.0000      	13333.3333    	1885.72729    
750.5000      	13324.4504    	1906.54541    
751.0000      	13315.5792    	1960.45459    
751.5000      	13306.7199    	1998.36365    
752.0000      	13297.8723    	2087.18188    
752.5000      	13289.0365    	2068.36353    
753.0000      	13280.2125    	2111.09082    
753.5000      	13271.4001    	1990.00000    
754.0000      	13262.5995    	1910.45459    
754.5000      	13253.8105    	1985.00000    
755.0000      	13245.0331    	1923.45459    
755.5000      	13236.2674    	1925.90906    
756.0000      	13227.5132    	1971.81824    
756.5000      	13218.7707    	1975.54541    
757.0000      	13210.0396    	1915.00000    
757.5000      	13201.3201    	1905.45459    
758.0000      	13192.6121    	1981.18176    
758.5000      	13183.9156    	1997.90906    
759.0000      	13175.2306    	2099.81812    
759.5000      	13166.5569    	1878.72729    
760.0000      	13157.8947    	1921.90906    
760.5000      	13149.2439    	2056.54541    
761.0000      	13140.6045    	1857.54541    
761.5000      	13131.9764    	2010.36365    
762.0000      	13123.3596    	1939.63635    
762.5000      	13114.7541    	1890.90906    
763.0000      	13106.1599    	1913.63635    
763.5000      	13097.5769    	1947.63635    
764.0000      	13089.0052    	1919.45459    
764.5000      	13080.4447    	1839.63635    
765.0000      	13071.8954    	1849.09094    
765.5000      	13063.3573    	1952.90906    
766.0000      	13054.8303    	1982.00000    
766.5000      	13046.3144    	1960.00000    
767.0000      	13037.8096    	1936.09094    
767.5000      	13029.3160    	1805.90906    
768.0000      	13020.8333    	1955.18176    
768.5000      	13012.3617    	2024.81824    
769.0000      	13003.9012    	1985.09094    
769.5000      	12995.4516    	1958.81824    
770.0000      	12987.0130    	1950.18176    
770.5000      	12978.5853    	1935.63635    
771.0000      	12970.1686    	2019.27271    
771.5000      	12961.7628    	2124.00000    
772.0000      	12953.3679    	1921.00000    
772.5000      	12944.9838    	1910.90906    
773.0000      	12936.6106    	1918.81824    
773.5000      	12928.2482    	1950.90906    
774.0000      	12919.8966    	1962.36365    
774.5000      	12911.5558    	1942.90906    
775.0000      	12903.2258    	1947.90906    
775.5000      	12894.9065    	1936.90906    
776.0000      	12886.5979    	1903.72729    
776.5000      	12878.3001    	1912.81824    
777.0000      	12870.0129    	1917.45459    
777.5000      	12861.7363    	1849.09094    
778.0000      	12853.4704    	1922.09094    
778.5000      	12845.2152    	2027.45459    
779.0000      	12836.9705    	1960.27271    
779.5000      	12828.7364    	2002.54541    
780.0000      	12820.5128    	1878.54541    
780.5000      	12812.2998    	1869.72729    
781.0000      	12804.0973    	1908.90906    
781.5000      	12795.9053    	1994.90906    
782.0000      	12787.7238    	1942.27271    
782.5000      	12779.5527    	1874.00000    
783.0000      	12771.3921    	1856.81824    
783.5000      	12763.2419    	1882.18176    
784.0000      	12755.1020    	1856.45459    
784.5000      	12746.9726    	2023.36365    
785.0000      	12738.8535    	1916.36365    
785.5000      	12730.7447    	1909.00000    
786.0000      	12722.6463    	1882.54541    
786.5000      	12714.5582    	1903.54541    
787.0000      	12706.4803    	2024.81824    
787.5000      	12698.4127    	1935.72729    
788.0000      	12690.3553    	2051.18188    
788.5000      	12682.3082    	1948.00000    
789.0000      	12674.2712    	1965.45459    
789.5000      	12666.2445    	1921.00000    
790.0000      	12658.2278    	1914.45459    
790.5000      	12650.2214    	1936.18176    
791.0000      	12642.2250    	1862.90906    
791.5000      	12634.2388    	1875.54541    
792.0000      	12626.2626    	1953.45459    
792.5000      	12618.2965    	1929.27271    
793.0000      	12610.3405    	1908.27271    
793.5000      	12602.3945    	1850.72729    
794.0000      	12594.4584    	1990.09094    
794.5000      	12586.5324    	1980.54541    
795.0000      	12578.6164    	1982.18176    
795.5000      	12570.7102    	1984.18176    
796.0000      	12562.8141    	1887.81824    
796.5000      	12554.9278    	1873.72729    
797.0000      	12547.0514    	1960.81824    
797.5000      	12539.1850    	1917.54541    
798.0000      	12531.3283    	1919.72729    
798.5000      	12523.4815    	1863.36365    
799.0000      	12515.6446    	1854.09094    
799.5000      	12507.8174    	1968.63635    
800.0000      	12500.0000    	2008.54541    
