Unit Serial No : 240-LV0P465-EU
Integration Time : 249 ms
Time Average: 11
Binning Average: 0
FFT Smoothing: 0%
Project Name : Project Name
Sample Name : Sample Name
Measurement No : 1
Measurement Time : 09/18/2007   09:27:23

Wavelength(nm)	Wavenumber(1/cm)	Intensity(Counts)
350.0000      	28571.4286    	2872.45459    
350.5000      	28530.6705    	2831.18188    
351.0000      	28490.0285    	2775.36353    
351.5000      	28449.5021    	2814.18188    
352.0000      	28409.0909    	2701.90918    
352.5000      	28368.7943    	2735.09082    
353.0000      	28328.6119    	2618.90918    
353.5000      	28288.5431    	2788.27271    
354.0000      	28248.5876    	2466.81812    
354.5000      	28208.7447    	2478.09082    
355.0000      	28169.0141    	2589.00000    
355.5000      	28129.3952    	2704.18188    
356.0000      	28089.8876    	2323.45459    
356.5000      	28050.4909    	2549.81812    
357.0000      	28011.2045    	2508.09082    
357.5000      	27972.0280    	2536.81812    
358.0000      	27932.9609    	2603.27271    
358.5000      	27894.0028    	3085.81812    
359.0000      	27855.1532    	2640.18188    
359.5000      	27816.4117    	2722.45459    
360.0000      	27777.7778    	2626.00000    
360.5000      	27739.2510    	2699.63647    
361.0000      	27700.8310    	2680.18188    
361.5000      	27662.5173    	2947.27271    
362.0000      	27624.3094    	2706.18188    
362.5000      	27586.2069    	2861.09082    
363.0000      	27548.2094    	2882.45459    
363.5000      	27510.3164    	2526.00000    
364.0000      	27472.5275    	2276.72729    
364.5000      	27434.8422    	2438.18188    
365.0000      	27397.2603    	2562.18188    
365.5000      	27359.7811    	2743.90918    
366.0000      	27322.4044    	2767.36353    
366.5000      	27285.1296    	2659.90918    
367.0000      	27247.9564    	2654.72729    
367.5000      	27210.8844    	2970.00000    
368.0000      	27173.9130    	2653.27271    
368.5000      	27137.0421    	2990.90918    
369.0000      	27100.2710    	2649.45459    
369.5000      	27063.5995    	2606.90918    
370.0000      	27027.0270    	2994.63647    
370.5000      	26990.5533    	2412.18188    
371.0000      	26954.1779    	2719.00000    
371.5000      	26917.9004    	2497.81812    
372.0000      	26881.7204    	2527.72729    
372.5000      	26845.6376    	2755.72729    
373.0000      	26809.6515    	2524.72729    
373.5000      	26773.7617    	2770.63647    
374.0000      	26737.9679    	3044.81812    
374.5000      	26702.2697    	2686.54541    
375.0000      	26666.6667    	2539.81812    
375.5000      	26631.1585    	2702.09082    
376.0000      	26595.7447    	2670.63647    
376.5000      	26560.4250    	2472.18188    
377.0000      	26525.1989    	2689.81812    
377.5000      	26490.0662    	2686.18188    
378.0000      	26455.0265    	2606.27271    
378.5000      	26420.0793    	2668.72729    
379.0000      	26385.2243    	2642.54541    
379.5000      	26350.4611    	2696.09082    
380.0000      	26315.7895    	2551.27271    
380.5000      	26281.2089    	2618.00000    
381.0000      	26246.7192    	2624.45459    
381.5000      	26212.3198    	2499.27271    
382.0000      	26178.0105    	2663.90918    
382.5000      	26143.7908    	2794.36353    
383.0000      	26109.6606    	2806.18188    
383.5000      	26075.6193    	2579.27271    
384.0000      	26041.6667    	3065.90918    
384.5000      	26007.8023    	2601.36353    
385.0000      	25974.0260    	2590.36353    
385.5000      	25940.3372    	2573.63647    
386.0000      	25906.7358    	2419.45459    
386.5000      	25873.2212    	2648.90918    
387.0000      	25839.7933    	2740.27271    
387.5000      	25806.4516    	2538.45459    
388.0000      	25773.1959    	2741.81812    
388.5000      	25740.0257    	2714.00000    
389.0000      	25706.9409    	2626.27271    
389.5000      	25673.9409    	2748.72729    
390.0000      	25641.0256    	2637.54541    
390.5000      	25608.1946    	2666.18188    
391.0000      	25575.4476    	2652.27271    
391.5000      	25542.7842    	2918.63647    
392.0000      	25510.2041    	2553.45459    
392.5000      	25477.7070    	2564.27271    
393.0000      	25445.2926    	2824.00000    
393.5000      	25412.9606    	2523.09082    
394.0000      	25380.7107    	2960.45459    
394.5000      	25348.5425    	2501.81812    
395.0000      	25316.4557    	2749.27271    
395.5000      	25284.4501    	2660.54541    
396.0000      	25252.5253    	2972.81812    
396.5000      	25220.6810    	2684.90918    
397.0000      	25188.9169    	2785.63647    
397.5000      	25157.2327    	2762.63647    
398.0000      	25125.6281    	2699.72729    
398.5000      	25094.1029    	2572.72729    
399.0000      	25062.6566    	2792.18188    
399.5000      	25031.2891    	2935.18188    
400.0000      	25000.0000    	2817.72729    
400.5000      	24968.7890    	2618.36353    
401.0000      	24937.6559    	2581.09082    
401.5000      	24906.6002    	2802.00000    
402.0000      	24875.6219    	2822.27271    
402.5000      	24844.7205    	2734.45459    
403.0000      	24813.8958    	2388.27271    
403.5000      	24783.1475    	2672.36353    
404.0000      	24752.4752    	2692.18188    
404.5000      	24721.8789    	2932.81812    
405.0000      	24691.3580    	2735.18188    
405.5000      	24660.9125    	2596.18188    
406.0000      	24630.5419    	2536.54541    
406.5000      	24600.2460    	2544.36353    
407.0000      	24570.0246    	2753.36353    
407.5000      	24539.8773    	2516.72729    
408.0000      	24509.8039    	2471.09082    
408.5000      	24479.8042    	2523.54541    
409.0000      	24449.8778    	2480.36353    
409.5000      	24420.0244    	2681.54541    
410.0000      	24390.2439    	2678.54541    
410.5000      	24360.5359    	2809.27271    
411.0000      	24330.9002    	2777.72729    
411.5000      	24301.3366    	2755.00000    
412.0000      	24271.8447    	2877.63647    
412.5000      	24242.4242    	2568.45459    
413.0000      	24213.0751    	2819.36353    
413.5000      	24183.7969    	2715.90918    
414.0000      	24154.5894    	2641.09082    
414.5000      	24125.4524    	2548.81812    
415.0000      	24096.3855    	2421.54541    
415.5000      	24067.3887    	2510.00000    
416.0000      	24038.4615    	2764.72729    
416.5000      	24009.6038    	2749.27271    
417.0000      	23980.8153    	2591.27271    
417.5000      	23952.0958    	2503.00000    
418.0000      	23923.4450    	2829.18188    
418.5000      	23894.8626    	2703.09082    
419.0000      	23866.3484    	2708.90918    
419.5000      	23837.9023    	2501.72729    
420.0000      	23809.5238    	2686.81812    
420.5000      	23781.2128    	2672.81812    
421.0000      	23752.9691    	2610.81812    
421.5000      	23724.7924    	2588.00000    
422.0000      	23696.6825    	2789.09082    
422.5000      	23668.6391    	2697.90918    
423.0000      	23640.6619    	2769.27271    
423.5000      	23612.7509    	2530.36353    
424.0000      	23584.9057    	2730.18188    
424.5000      	23557.1260    	2935.54541    
425.0000      	23529.4118    	2555.36353    
425.5000      	23501.7626    	2423.18188    
426.0000      	23474.1784    	2596.90918    
426.5000      	23446.6589    	2606.45459    
427.0000      	23419.2037    	2692.72729    
427.5000      	23391.8129    	2698.18188    
428.0000      	23364.4860    	2583.72729    
428.5000      	23337.2229    	2653.27271    
429.0000      	23310.0233    	3113.27271    
429.5000      	23282.8871    	2840.27271    
430.0000      	23255.8140    	2719.72729    
430.5000      	23228.8037    	2695.54541    
431.0000      	23201.8561    	3017.36353    
431.5000      	23174.9710    	2584.09082    
432.0000      	23148.1481    	2478.90918    
432.5000      	23121.3873    	2641.81812    
433.0000      	23094.6882    	2415.90918    
433.5000      	23068.0507    	2653.54541    
434.0000      	23041.4747    	3005.72729    
434.5000      	23014.9597    	2605.81812    
435.0000      	22988.5057    	2620.36353    
435.5000      	22962.1125    	3059.90918    
436.0000      	22935.7798    	2828.18188    
436.5000      	22909.5074    	2572.00000    
437.0000      	22883.2952    	2553.63647    
437.5000      	22857.1429    	2644.90918    
438.0000      	22831.0502    	2538.81812    
438.5000      	22805.0171    	2453.18188    
439.0000      	22779.0433    	2453.00000    
439.5000      	22753.1286    	2390.63647    
440.0000      	22727.2727    	3064.36353    
440.5000      	22701.4756    	2847.81812    
441.0000      	22675.7370    	3154.09082    
441.5000      	22650.0566    	2565.81812    
442.0000      	22624.4344    	2542.81812    
442.5000      	22598.8701    	3036.27271    
443.0000      	22573.3634    	2809.27271    
443.5000      	22547.9143    	2810.09082    
444.0000      	22522.5225    	2792.81812    
444.5000      	22497.1879    	2800.72729    
445.0000      	22471.9101    	2867.72729    
445.5000      	22446.6891    	2369.72729    
446.0000      	22421.5247    	2481.27271    
446.5000      	22396.4166    	2827.45459    
447.0000      	22371.3647    	2606.54541    
447.5000      	22346.3687    	2761.09082    
448.0000      	22321.4286    	2798.54541    
448.5000      	22296.5440    	2568.81812    
449.0000      	22271.7149    	2787.63647    
449.5000      	22246.9410    	3075.81812    
450.0000      	22222.2222    	2726.36353    
450.5000      	22197.5583    	2903.18188    
451.0000      	22172.9490    	2937.81812    
451.5000      	22148.3942    	2855.00000    
452.0000      	22123.8938    	2712.90918    
452.5000      	22099.4475    	2689.45459    
453.0000      	22075.0552    	2748.81812    
453.5000      	22050.7166    	2647.90918    
454.0000      	22026.4317    	2576.54541    
454.5000      	22002.2002    	2624.45459    
455.0000      	21978.0220    	2807.27271    
455.5000      	21953.8968    	2900.90918    
456.0000      	21929.8246    	2936.63647    
456.5000      	21905.8050    	2994.18188    
457.0000      	21881.8381    	3202.27271    
457.5000      	21857.9235    	3120.18188    
458.0000      	21834.0611    	3002.63647    
458.5000      	21810.2508    	2766.18188    
459.0000      	21786.4924    	3353.09082    
459.5000      	21762.7856    	2973.63647    
460.0000      	21739.1304    	3224.63647    
460.5000      	21715.5266    	3038.18188    
461.0000      	21691.9740    	3091.45459    
461.5000      	21668.4724    	3421.45459    
462.0000      	21645.0216    	3368.18188    
462.5000      	21621.6216    	3071.90918    
463.0000      	21598.2721    	3300.27271    
463.5000      	21574.9730    	3264.54541    
464.0000      	21551.7241    	3228.00000    
464.5000      	21528.5253    	3527.09082    
465.0000      	21505.3763    	3669.45459    
465.5000      	21482.2771    	3406.90918    
466.0000      	21459.2275    	4454.72705    
466.5000      	21436.2272    	3394.63647    
467.0000      	21413.2762    	3640.00000    
467.5000      	21390.3743    	4048.27271    
468.0000      	21367.5214    	3903.00000    
468.5000      	21344.7172    	3906.63647    
469.0000      	21321.9616    	4486.72705    
469.5000      	21299.2545    	4301.36377    
470.0000      	21276.5957    	4167.81836    
470.5000      	21253.9851    	4714.81836    
471.0000      	21231.4225    	4745.63623    
471.5000      	21208.9077    	4516.36377    
472.0000      	21186.4407    	4615.18164    
472.5000      	21164.0212    	5104.18164    
473.0000      	21141.6490    	5303.27295    
473.5000      	21119.3242    	5320.27295    
474.0000      	21097.0464    	5982.45459    
474.5000      	21074.8156    	5952.09082    
475.0000      	21052.6316    	5861.27295    
475.5000      	21030.4942    	6641.18164    
476.0000      	21008.4034    	6773.72705    
476.5000      	20986.3589    	7013.63623    
477.0000      	20964.3606    	7458.09082    
477.5000      	20942.4084    	7883.63623    
478.0000      	20920.5021    	8369.63672    
478.5000      	20898.6416    	8694.27246    
479.0000      	20876.8267    	9038.00000    
479.5000      	20855.0574    	9293.00000    
480.0000      	20833.3333    	9830.18164    
480.5000      	20811.6545    	10336.00000   
481.0000      	20790.0208    	10961.72754   
481.5000      	20768.4320    	11147.09082   
482.0000      	20746.8880    	11557.54590   
482.5000      	20725.3886    	12565.45410   
483.0000      	20703.9337    	12931.54590   
483.5000      	20682.5233    	13704.27246   
484.0000      	20661.1570    	14260.18164   
484.5000      	20639.8349    	14672.27246   
485.0000      	20618.5567    	15081.18164   
485.5000      	20597.3223    	15973.18164   
486.0000      	20576.1317    	16587.36328   
486.5000      	20554.9846    	16809.54492   
487.0000      	20533.8809    	17615.72656   
487.5000      	20512.8205    	18466.00000   
488.0000      	20491.8033    	19270.81836   
488.5000      	20470.8291    	19463.18164   
489.0000      	20449.8978    	20130.72656   
489.5000      	20429.0092    	21139.90820   
490.0000      	20408.1633    	22101.36328   
490.5000      	20387.3598    	23019.00000   
491.0000      	20366.5988    	23377.81836   
491.5000      	20345.8800    	24527.90820   
492.0000      	20325.2033    	25078.36328   
492.5000      	20304.5685    	25859.27344   
493.0000      	20283.9757    	27247.54492   
493.5000      	20263.4245    	27062.27344   
494.0000      	20242.9150    	28113.81836   
494.5000      	20222.4469    	29189.45508   
495.0000      	20202.0202    	29900.81836   
495.5000      	20181.6347    	30441.90820   
496.0000      	20161.2903    	31628.90820   
496.5000      	20140.9869    	32094.18164   
497.0000      	20120.7243    	32950.63672   
497.5000      	20100.5025    	33997.91016   
498.0000      	20080.3213    	34523.00000   
498.5000      	20060.1805    	35476.08984   
499.0000      	20040.0802    	36980.63672   
499.5000      	20020.0200    	37053.36328   
500.0000      	20000.0000    	37645.27344   
500.5000      	19980.0200    	38465.91016   
501.0000      	19960.0798    	39398.54688   
501.5000      	19940.1795    	39880.91016   
502.0000      	19920.3187    	40456.27344   
502.5000      	19900.4975    	41244.18359   
503.0000      	19880.7157    	41735.81641   
503.5000      	19860.9732    	42700.91016   
504.0000      	19841.2698    	43146.45313   
504.5000      	19821.6056    	43744.54688   
505.0000      	19801.9802    	43720.18359   
505.5000      	19782.3937    	44148.36328   
506.0000      	19762.8458    	44457.72656   
506.5000      	19743.3366    	44793.91016   
507.0000      	19723.8659    	45149.18359   
507.5000      	19704.4335    	45283.54688   
508.0000      	19685.0394    	45331.18359   
508.5000      	19665.6834    	45291.08984   
509.0000      	19646.3654    	45189.36328   
509.5000      	19627.0854    	45166.27344   
510.0000      	19607.8431    	45240.00000   
510.5000      	19588.6386    	44491.18359   
511.0000      	19569.4716    	44298.63672   
511.5000      	19550.3421    	44264.00000   
512.0000      	19531.2500    	43961.36328   
512.5000      	19512.1951    	42542.91016   
513.0000      	19493.1774    	42160.45313   
513.5000      	19474.1967    	41580.63672   
514.0000      	19455.2529    	40973.63672   
514.5000      	19436.3460    	39943.45313   
515.0000      	19417.4757    	38985.72656   
515.5000      	19398.6421    	38915.72656   
516.0000      	19379.8450    	37708.45313   
516.5000      	19361.0842    	36893.81641   
517.0000      	19342.3598    	35896.54688   
517.5000      	19323.6715    	34850.00000   
518.0000      	19305.0193    	34108.36328   
518.5000      	19286.4031    	33034.18359   
519.0000      	19267.8227    	31722.36328   
519.5000      	19249.2782    	30916.90820   
520.0000      	19230.7692    	29782.54492   
520.5000      	19212.2959    	29262.09180   
521.0000      	19193.8580    	28211.81836   
521.5000      	19175.4554    	27029.72656   
522.0000      	19157.0881    	26392.09180   
522.5000      	19138.7560    	25397.54492   
523.0000      	19120.4589    	24349.90820   
523.5000      	19102.1968    	23623.72656   
524.0000      	19083.9695    	22789.54492   
524.5000      	19065.7769    	22037.63672   
525.0000      	19047.6190    	21497.72656   
525.5000      	19029.4957    	20340.18164   
526.0000      	19011.4068    	19975.36328   
526.5000      	18993.3523    	19863.72656   
527.0000      	18975.3321    	18661.81836   
527.5000      	18957.3460    	17558.63672   
528.0000      	18939.3939    	17378.00000   
528.5000      	18921.4759    	17301.09180   
529.0000      	18903.5917    	16358.27246   
529.5000      	18885.7413    	15843.18164   
530.0000      	18867.9245    	15169.90918   
530.5000      	18850.1414    	14563.00000   
531.0000      	18832.3917    	14619.81836   
531.5000      	18814.6754    	13840.00000   
532.0000      	18796.9925    	13509.09082   
532.5000      	18779.3427    	12845.63672   
533.0000      	18761.7261    	12435.63672   
533.5000      	18744.1425    	12113.09082   
534.0000      	18726.5918    	11744.27246   
534.5000      	18709.0739    	11125.90918   
535.0000      	18691.5888    	10984.36328   
535.5000      	18674.1363    	10313.72754   
536.0000      	18656.7164    	10479.00000   
536.5000      	18639.3290    	9805.72754    
537.0000      	18621.9739    	9547.90918    
537.5000      	18604.6512    	9234.00000    
538.0000      	18587.3606    	8752.90918    
538.5000      	18570.1021    	8535.81836    
539.0000      	18552.8757    	8234.27246    
539.5000      	18535.6812    	8085.27295    
540.0000      	18518.5185    	7479.72705    
540.5000      	18501.3876    	7348.00000    
541.0000      	18484.2884    	7427.45459    
541.5000      	18467.2207    	6940.72705    
542.0000      	18450.1845    	6796.09082    
542.5000      	18433.1797    	6303.72705    
543.0000      	18416.2063    	6354.81836    
543.5000      	18399.2640    	6236.72705    
544.0000      	18382.3529    	5880.09082    
544.5000      	18365.4729    	5599.18164    
545.0000      	18348.6239    	5803.36377    
545.5000      	18331.8057    	5370.54541    
546.0000      	18315.0183    	5537.36377    
546.5000      	18298.2617    	5071.81836    
547.0000      	18281.5356    	4896.72705    
547.5000      	18264.8402    	4857.81836    
548.0000      	18248.1752    	4819.63623    
548.5000      	18231.5406    	4488.09082    
549.0000      	18214.9362    	4624.63623    
549.5000      	18198.3621    	4523.00000    
550.0000      	18181.8182    	4235.90918    
550.5000      	18165.3043    	4279.00000    
551.0000      	18148.8203    	3903.45459    
551.5000      	18132.3663    	4050.72729    
552.0000      	18115.9420    	3792.00000    
552.5000      	18099.5475    	3768.18188    
553.0000      	18083.1826    	3588.36353    
553.5000      	18066.8473    	4216.18164    
554.0000      	18050.5415    	3895.27271    
554.5000      	18034.2651    	3632.81812    
555.0000      	18018.0180    	3388.18188    
555.5000      	18001.8002    	3404.00000    
556.0000      	17985.6115    	3266.36353    
556.5000      	17969.4519    	3188.27271    
557.0000      	17953.3214    	3280.90918    
557.5000      	17937.2197    	3263.81812    
558.0000      	17921.1470    	3267.09082    
558.5000      	17905.1030    	3198.45459    
559.0000      	17889.0877    	3204.45459    
559.5000      	17873.1010    	3563.90918    
560.0000      	17857.1429    	3368.27271    
560.5000      	17841.2132    	3049.36353    
561.0000      	17825.3119    	3272.36353    
561.5000      	17809.4390    	2825.36353    
562.0000      	17793.5943    	3149.18188    
562.5000      	17777.7778    	3161.27271    
563.0000      	17761.9893    	3031.00000    
563.5000      	17746.2289    	2772.72729    
564.0000      	17730.4965    	3101.45459    
564.5000      	17714.7919    	3041.63647    
565.0000      	17699.1150    	2749.36353    
565.5000      	17683.4660    	2651.81812    
566.0000      	17667.8445    	3077.90918    
566.5000      	17652.2507    	2758.09082    
567.0000      	17636.6843    	2750.90918    
567.5000      	17621.1454    	2725.90918    
568.0000      	17605.6338    	2819.90918    
568.5000      	17590.1495    	2697.81812    
569.0000      	17574.6924    	2828.00000    
569.5000      	17559.2625    	2754.09082    
570.0000      	17543.8596    	2635.45459    
570.5000      	17528.4838    	2506.45459    
571.0000      	17513.1349    	2727.90918    
571.5000      	17497.8128    	2902.63647    
572.0000      	17482.5175    	2626.81812    
572.5000      	17467.2489    	3064.72729    
573.0000      	17452.0070    	2470.36353    
573.5000      	17436.7916    	2756.54541    
574.0000      	17421.6028    	2574.00000    
574.5000      	17406.4404    	2568.00000    
575.0000      	17391.3043    	2644.72729    
575.5000      	17376.1946    	2631.00000    
576.0000      	17361.1111    	2668.63647    
576.5000      	17346.0538    	2493.90918    
577.0000      	17331.0225    	2501.27271    
577.5000      	17316.0173    	2422.09082    
578.0000      	17301.0381    	2687.09082    
578.5000      	17286.0847    	2603.45459    
579.0000      	17271.1572    	2775.63647    
579.5000      	17256.2554    	2561.81812    
580.0000      	17241.3793    	3425.36353    
580.5000      	17226.5289    	2831.81812    
581.0000      	17211.7040    	2688.18188    
581.5000      	17196.9046    	2395.27271    
582.0000      	17182.1306    	2611.00000    
582.5000      	17167.3820    	2692.27271    
583.0000      	17152.6587    	2508.36353    
583.5000      	17137.9606    	2777.81812    
584.0000      	17123.2877    	2483.09082    
584.5000      	17108.6399    	2350.72729    
585.0000      	17094.0171    	2455.09082    
585.5000      	17079.4193    	2278.18188    
586.0000      	17064.8464    	2513.18188    
586.5000      	17050.2984    	2447.27271    
587.0000      	17035.7751    	2512.00000    
587.5000      	17021.2766    	2520.81812    
588.0000      	17006.8027    	2697.45459    
588.5000      	16992.3534    	2645.18188    
589.0000      	16977.9287    	2704.63647    
589.5000      	16963.5284    	2648.36353    
590.0000      	16949.1525    	2978.09082    
590.5000      	16934.8010    	2675.27271    
591.0000      	16920.4738    	2559.09082    
591.5000      	16906.1708    	2816.09082    
592.0000      	16891.8919    	2510.72729    
592.5000      	16877.6371    	2666.81812    
593.0000      	16863.4064    	2532.36353    
593.5000      	16849.1997    	2574.09082    
594.0000      	16835.0168    	2354.90918    
594.5000      	16820.8579    	3017.27271    
595.0000      	16806.7227    	2509.54541    
595.5000      	16792.6113    	2361.27271    
596.0000      	16778.5235    	2860.09082    
596.5000      	16764.4593    	2689.36353    
597.0000      	16750.4188    	2461.36353    
597.5000      	16736.4017    	2372.36353    
598.0000      	16722.4080    	2733.45459    
598.5000      	16708.4378    	2739.45459    
599.0000      	16694.4908    	2775.63647    
599.5000      	16680.5671    	2534.81812    
600.0000      	16666.6667    	2584.18188    
600.5000      	16652.7893    	2625.90918    
601.0000      	16638.9351    	2794.09082    
601.5000      	16625.1039    	2507.36353    
602.0000      	16611.2957    	2408.00000    
602.5000      	16597.5104    	2419.27271    
603.0000      	16583.7479    	2426.63647    
603.5000      	16570.0083    	2335.54541    
604.0000      	16556.2914    	2381.36353    
604.5000      	16542.5972    	2811.09082    
605.0000      	16528.9256    	2866.27271    
605.5000      	16515.2766    	2528.36353    
606.0000      	16501.6502    	2412.45459    
606.5000      	16488.0462    	2483.72729    
607.0000      	16474.4646    	2453.36353    
607.5000      	16460.9053    	2731.90918    
608.0000      	16447.3684    	2973.90918    
608.5000      	16433.8537    	2582.81812    
609.0000      	16420.3612    	2834.18188    
609.5000      	16406.8909    	2449.90918    
610.0000      	16393.4426    	2680.27271    
610.5000      	16380.0164    	2995.72729    
611.0000      	16366.6121    	2358.27271    
611.5000      	16353.2298    	2553.54541    
612.0000      	16339.8693    	2533.90918    
612.5000      	16326.5306    	2756.81812    
613.0000      	16313.2137    	2402.27271    
613.5000      	16299.9185    	2823.18188    
614.0000      	16286.6450    	2501.81812    
614.5000      	16273.3930    	2591.00000    
615.0000      	16260.1626    	2462.45459    
615.5000      	16246.9537    	2395.45459    
616.0000      	16233.7662    	2532.90918    
616.5000      	16220.6002    	2379.00000    
617.0000      	16207.4554    	2625.09082    
617.5000      	16194.3320    	2457.27271    
618.0000      	16181.2298    	2267.81812    
618.5000      	16168.1487    	2670.81812    
619.0000      	16155.0889    	2604.54541    
619.5000      	16142.0500    	2443.27271    
620.0000      	16129.0323    	2542.63647    
620.5000      	16116.0355    	2772.54541    
621.0000      	16103.0596    	2476.36353    
621.5000      	16090.1046    	2242.00000    
622.0000      	16077.1704    	2426.36353    
622.5000      	16064.2570    	2730.63647    
623.0000      	16051.3644    	2545.00000    
623.5000      	16038.4924    	2428.18188    
624.0000      	16025.6410    	2578.63647    
624.5000      	16012.8102    	2945.72729    
625.0000      	16000.0000    	2606.18188    
625.5000      	15987.2102    	2415.27271    
626.0000      	15974.4409    	2554.27271    
626.5000      	15961.6919    	2437.54541    
627.0000      	15948.9633    	2542.36353    
627.5000      	15936.2550    	2636.54541    
628.0000      	15923.5669    	2714.54541    
628.5000      	15910.8990    	2301.18188    
629.0000      	15898.2512    	2545.36353    
629.5000      	15885.6235    	2365.45459    
630.0000      	15873.0159    	2354.09082    
630.5000      	15860.4282    	2507.18188    
631.0000      	15847.8605    	2494.09082    
631.5000      	15835.3127    	2398.54541    
632.0000      	15822.7848    	2577.45459    
632.5000      	15810.2767    	2562.09082    
633.0000      	15797.7883    	2381.54541    
633.5000      	15785.3197    	2254.72729    
634.0000      	15772.8707    	2748.18188    
634.5000      	15760.4413    	2615.27271    
635.0000      	15748.0315    	2475.00000    
635.5000      	15735.6412    	2728.45459    
636.0000      	15723.2704    	2639.81812    
636.5000      	15710.9191    	2467.81812    
637.0000      	15698.5871    	2831.09082    
637.5000      	15686.2745    	2707.36353    
638.0000      	15673.9812    	2587.72729    
638.5000      	15661.7071    	2431.72729    
639.0000      	15649.4523    	2751.90918    
639.5000      	15637.2166    	2616.72729    
640.0000      	15625.0000    	2829.27271    
640.5000      	15612.8025    	2717.81812    
641.0000      	15600.6240    	2530.54541    
641.5000      	15588.4645    	2640.36353    
642.0000      	15576.3240    	2245.27271    
642.5000      	15564.2023    	2668.63647    
643.0000      	15552.0995    	2235.63647    
643.5000      	15540.0155    	2255.63647    
644.0000      	15527.9503    	2448.72729    
644.5000      	15515.9038    	2583.81812    
645.0000      	15503.8760    	2358.54541    
645.5000      	15491.8668    	2585.54541    
646.0000      	15479.8762    	2438.90918    
646.5000      	15467.9041    	2525.90918    
647.0000      	15455.9505    	2355.36353    
647.5000      	15444.0154    	2615.90918    
648.0000      	15432.0988    	2609.54541    
648.5000      	15420.2005    	2765.90918    
649.0000      	15408.3205    	2550.54541    
649.5000      	15396.4588    	2653.00000    
650.0000      	15384.6154    	2465.09082    
650.5000      	15372.7902    	2385.09082    
651.0000      	15360.9831    	2420.90918    
651.5000      	15349.1942    	2307.09082    
652.0000      	15337.4233    	2744.63647    
652.5000      	15325.6705    	2417.09082    
653.0000      	15313.9357    	2327.36353    
653.5000      	15302.2188    	2462.72729    
654.0000      	15290.5199    	2415.63647    
654.5000      	15278.8388    	2286.72729    
655.0000      	15267.1756    	2272.63647    
655.5000      	15255.5301    	2490.09082    
656.0000      	15243.9024    	2490.27271    
656.5000      	15232.2925    	2405.63647    
657.0000      	15220.7002    	2318.36353    
657.5000      	15209.1255    	2880.18188    
658.0000      	15197.5684    	2537.45459    
658.5000      	15186.0289    	2380.09082    
659.0000      	15174.5068    	2254.63647    
659.5000      	15163.0023    	2618.72729    
660.0000      	15151.5152    	2348.45459    
660.5000      	15140.0454    	2427.63647    
661.0000      	15128.5930    	2690.54541    
661.5000      	15117.1580    	2806.09082    
662.0000      	15105.7402    	2625.90918    
662.5000      	15094.3396    	2752.00000    
663.0000      	15082.9563    	2524.81812    
663.5000      	15071.5901    	2549.81812    
664.0000      	15060.2410    	2511.90918    
664.5000      	15048.9090    	2388.36353    
665.0000      	15037.5940    	2569.36353    
665.5000      	15026.2960    	2528.72729    
666.0000      	15015.0150    	2516.45459    
666.5000      	15003.7509    	2500.36353    
667.0000      	14992.5037    	2555.45459    
667.5000      	14981.2734    	2718.54541    
668.0000      	14970.0599    	2623.27271    
668.5000      	14958.8631    	2365.54541    
669.0000      	14947.6831    	2458.81812    
669.5000      	14936.5198    	2336.09082    
670.0000      	14925.3731    	2424.36353    
670.5000      	14914.2431    	2595.09082    
671.0000      	14903.1297    	2700.09082    
671.5000      	14892.0328    	2453.09082    
672.0000      	14880.9524    	2435.90918    
672.5000      	14869.8885    	2391.00000    
673.0000      	14858.8410    	2491.90918    
673.5000      	14847.8099    	2462.54541    
674.0000      	14836.7953    	2580.90918    
674.5000      	14825.7969    	2935.09082    
675.0000      	14814.8148    	2755.90918    
675.5000      	14803.8490    	2518.72729    
676.0000      	14792.8994    	2561.00000    
676.5000      	14781.9660    	2688.18188    
677.0000      	14771.0487    	2919.45459    
677.5000      	14760.1476    	2606.54541    
678.0000      	14749.2625    	2634.00000    
678.5000      	14738.3935    	2625.36353    
679.0000      	14727.5405    	3051.00000    
679.5000      	14716.7035    	2693.27271    
680.0000      	14705.8824    	2624.18188    
680.5000      	14695.0771    	2375.00000    
681.0000      	14684.2878    	2397.00000    
681.5000      	14673.5143    	2702.18188    
682.0000      	14662.7566    	2583.90918    
682.5000      	14652.0147    	2738.27271    
683.0000      	14641.2884    	2505.90918    
683.5000      	14630.5779    	2546.45459    
684.0000      	14619.8830    	2429.00000    
684.5000      	14609.2038    	2580.90918    
685.0000      	14598.5401    	2511.18188    
685.5000      	14587.8920    	2304.45459    
686.0000      	14577.2595    	2492.00000    
686.5000      	14566.6424    	2341.90918    
687.0000      	14556.0408    	2343.00000    
687.5000      	14545.4545    	2233.36353    
688.0000      	14534.8837    	2743.90918    
688.5000      	14524.3282    	3061.00000    
689.0000      	14513.7881    	2412.63647    
689.5000      	14503.2632    	2442.36353    
690.0000      	14492.7536    	2866.27271    
690.5000      	14482.2592    	2350.18188    
691.0000      	14471.7800    	2564.18188    
691.5000      	14461.3160    	2453.81812    
692.0000      	14450.8671    	2543.36353    
692.5000      	14440.4332    	3091.18188    
693.0000      	14430.0144    	2690.27271    
693.5000      	14419.6107    	2535.54541    
694.0000      	14409.2219    	2852.45459    
694.5000      	14398.8481    	2563.90918    
695.0000      	14388.4892    	2533.63647    
695.5000      	14378.1452    	2513.81812    
696.0000      	14367.8161    	2350.27271    
696.5000      	14357.5018    	2665.45459    
697.0000      	14347.2023    	2510.18188    
697.5000      	14336.9176    	2548.54541    
698.0000      	14326.6476    	2693.00000    
698.5000      	14316.3923    	2624.81812    
699.0000      	14306.1516    	2604.18188    
699.5000      	14295.9257    	2578.81812    
700.0000      	14285.7143    	2515.54541    
700.5000      	14275.5175    	2644.36353    
701.0000      	14265.3352    	2960.81812    
701.5000      	14255.1675    	2444.63647    
702.0000      	14245.0142    	2541.63647    
702.5000      	14234.8754    	2452.72729    
703.0000      	14224.7511    	2396.18188    
703.5000      	14214.6411    	2375.54541    
704.0000      	14204.5455    	2203.54541    
704.5000      	14194.4642    	2593.00000    
705.0000      	14184.3972    	2623.00000    
705.5000      	14174.3444    	2523.09082    
706.0000      	14164.3059    	2769.09082    
706.5000      	14154.2817    	2750.36353    
707.0000      	14144.2716    	2623.63647    
707.5000      	14134.2756    	2490.54541    
708.0000      	14124.2938    	2420.18188    
708.5000      	14114.3260    	2420.90918    
709.0000      	14104.3724    	2615.45459    
709.5000      	14094.4327    	2970.90918    
710.0000      	14084.5070    	2527.09082    
710.5000      	14074.5954    	2590.72729    
711.0000      	14064.6976    	2701.54541    
711.5000      	14054.8138    	2721.45459    
712.0000      	14044.9438    	2627.09082    
712.5000      	14035.0877    	2671.90918    
713.0000      	14025.2454    	2517.45459    
713.5000      	14015.4170    	2932.81812    
714.0000      	14005.6022    	2705.45459    
714.5000      	13995.8013    	2927.81812    
715.0000      	13986.0140    	2382.63647    
715.5000      	13976.2404    	2516.00000    
716.0000      	13966.4804    	2668.72729    
716.5000      	13956.7341    	2603.27271    
717.0000      	13947.0014    	2611.81812    
717.5000      	13937.2822    	2492.63647    
718.0000      	13927.5766    	2608.00000    
718.5000      	13917.8845    	2613.90918    
719.0000      	13908.2058    	2522.00000    
719.5000      	13898.5407    	2602.45459    
720.0000      	13888.8889    	2793.81812    
720.5000      	13879.2505    	2634.54541    
721.0000      	13869.6255    	2515.27271    
721.5000      	13860.0139    	2489.81812    
722.0000      	13850.4155    	2537.36353    
722.5000      	13840.8304    	2129.45459    
723.0000      	13831.2586    	2440.00000    
723.5000      	13821.7001    	2383.45459    
724.0000      	13812.1547    	2281.00000    
724.5000      	13802.6225    	2297.45459    
725.0000      	13793.1034    	2532.54541    
725.5000      	13783.5975    	2505.54541    
726.0000      	13774.1047    	2400.72729    
726.5000      	13764.6249    	2602.00000    
727.0000      	13755.1582    	2403.36353    
727.5000      	13745.7045    	2461.00000    
728.0000      	13736.2637    	2563.36353    
728.5000      	13726.8360    	2565.54541    
729.0000      	13717.4211    	2654.81812    
729.5000      	13708.0192    	2600.63647    
730.0000      	13698.6301    	2613.27271    
730.5000      	13689.2539    	2591.45459    
731.0000      	13679.8906    	2674.27271    
731.5000      	13670.5400    	2579.09082    
732.0000      	13661.2022    	2504.36353    
732.5000      	13651.8771    	2704.00000    
733.0000      	13642.5648    	2496.81812    
733.5000      	13633.2652    	2735.72729    
734.0000      	13623.9782    	2690.00000    
734.5000      	13614.7039    	2435.81812    
735.0000      	13605.4422    	2684.27271    
735.5000      	13596.1931    	2478.27271    
736.0000      	13586.9565    	2583.90918    
736.5000      	13577.7325    	2747.27271    
737.0000      	13568.5210    	2652.09082    
737.5000      	13559.3220    	2467.45459    
738.0000      	13550.1355    	2515.00000    
738.5000      	13540.9614    	2420.63647    
739.0000      	13531.7997    	2292.36353    
739.5000      	13522.6504    	2388.54541    
740.0000      	13513.5135    	2418.90918    
740.5000      	13504.3889    	2211.36353    
741.0000      	13495.2767    	2486.09082    
741.5000      	13486.1767    	2812.54541    
742.0000      	13477.0889    	2941.18188    
742.5000      	13468.0135    	2369.00000    
743.0000      	13458.9502    	2460.81812    
743.5000      	13449.8991    	2512.00000    
744.0000      	13440.8602    	2464.09082    
744.5000      	13431.8334    	2669.36353    
745.0000      	13422.8188    	2521.81812    
745.5000      	13413.8162    	2291.27271    
746.0000      	13404.8257    	2324.36353    
746.5000      	13395.8473    	2547.54541    
747.0000      	13386.8809    	2379.63647    
747.5000      	13377.9264    	2603.27271    
748.0000      	13368.9840    	2410.45459    
748.5000      	13360.0534    	2502.54541    
749.0000      	13351.1348    	2423.27271    
749.5000      	13342.2282    	2353.54541    
750.0000      	13333.3333    	2382.72729    
750.5000      	13324.4504    	2526.09082    
751.0000      	13315.5792    	2650.27271    
751.5000      	13306.7199    	2752.72729    
752.0000      	13297.8723    	2854.45459    
752.5000      	13289.0365    	2897.54541    
753.0000      	13280.2125    	3020.54541    
753.5000      	13271.4001    	2740.36353    
754.0000      	13262.5995    	2536.81812    
754.5000      	13253.8105    	2724.36353    
755.0000      	13245.0331    	2604.27271    
755.5000      	13236.2674    	2501.72729    
756.0000      	13227.5132    	2585.45459    
756.5000      	13218.7707    	2721.72729    
757.0000      	13210.0396    	2552.27271    
757.5000      	13201.3201    	2525.45459    
758.0000      	13192.6121    	2653.81812    
758.5000      	13183.9156    	2696.54541    
759.0000      	13175.2306    	2882.45459    
759.5000      	13166.5569    	2423.72729    
760.0000      	13157.8947    	2572.90918    
760.5000      	13149.2439    	2889.72729    
761.0000      	13140.6045    	2370.00000    
761.5000      	13131.9764    	2792.81812    
762.0000      	13123.3596    	2580.45459    
762.5000      	13114.7541    	2491.90918    
763.0000      	13106.1599    	2512.45459    
763.5000      	13097.5769    	2619.36353    
764.0000      	13089.0052    	2536.36353    
764.5000      	13080.4447    	2289.81812    
765.0000      	13071.8954    	2367.27271    
765.5000      	13063.3573    	2565.81812    
766.0000      	13054.8303    	2637.81812    
766.5000      	13046.3144    	2692.18188    
767.0000      	13037.8096    	2570.81812    
767.5000      	13029.3160    	2227.63647    
768.0000      	13020.8333    	2560.00000    
768.5000      	13012.3617    	2740.27271    
769.0000      	13003.9012    	2669.27271    
769.5000      	12995.4516    	2692.09082    
770.0000      	12987.0130    	2625.45459    
770.5000      	12978.5853    	2528.36353    
771.0000      	12970.1686    	2718.63647    
771.5000      	12961.7628    	2985.81812    
772.0000      	12953.3679    	2517.18188    
772.5000      	12944.9838    	2519.18188    
773.0000      	12936.6106    	2583.00000    
773.5000      	12928.2482    	2635.63647    
774.0000      	12919.8966    	2635.72729    
774.5000      	12911.5558    	2485.36353    
775.0000      	12903.2258    	2568.27271    
775.5000      	12894.9065    	2619.81812    
776.0000      	12886.5979    	2553.27271    
776.5000      	12878.3001    	2494.81812    
777.0000      	12870.0129    	2519.27271    
777.5000      	12861.7363    	2338.63647    
778.0000      	12853.4704    	2500.00000    
778.5000      	12845.2152    	2832.90918    
779.0000      	12836.9705    	2716.09082    
779.5000      	12828.7364    	2765.18188    
780.0000      	12820.5128    	2428.72729    
780.5000      	12812.2998    	2370.00000    
781.0000      	12804.0973    	2489.45459    
781.5000      	12795.9053    	2657.81812    
782.0000      	12787.7238    	2647.72729    
782.5000      	12779.5527    	2462.81812    
783.0000      	12771.3921    	2367.09082    
783.5000      	12763.2419    	2463.90918    
784.0000      	12755.1020    	2350.81812    
784.5000      	12746.9726    	2801.72729    
785.0000      	12738.8535    	2517.45459    
785.5000      	12730.7447    	2533.18188    
786.0000      	12722.6463    	2459.18188    
786.5000      	12714.5582    	2443.36353    
787.0000      	12706.4803    	2750.45459    
787.5000      	12698.4127    	2562.27271    
788.0000      	12690.3553    	2889.81812    
788.5000      	12682.3082    	2596.72729    
789.0000      	12674.2712    	2689.36353    
789.5000      	12666.2445    	2572.90918    
790.0000      	12658.2278    	2510.18188    
790.5000      	12650.2214    	2526.90918    
791.0000      	12642.2250    	2432.36353    
791.5000      	12634.2388    	2518.54541    
792.0000      	12626.2626    	2668.63647    
792.5000      	12618.2965    	2576.18188    
793.0000      	12610.3405    	2470.90918    
793.5000      	12602.3945    	2395.36353    
794.0000      	12594.4584    	2697.45459    
794.5000      	12586.5324    	2678.81812    
795.0000      	12578.6164    	2728.90918    
795.5000      	12570.7102    	2670.09082    
796.0000      	12562.8141    	2442.09082    
796.5000      	12554.9278    	2432.27271    
797.0000      	12547.0514    	2649.72729    
797.5000      	12539.1850    	2542.45459    
798.0000      	12531.3283    	2569.81812    
798.5000      	12523.4815    	2435.36353    
799.0000      	12515.6446    	2364.90918    
799.5000      	12507.8174    	2631.81812    
800.0000      	12500.0000    	2827.00000    
