Unit Serial No : 240-LV0P465-EU
Integration Time : 249 ms
Time Average: 11
Binning Average: 0
FFT Smoothing: 0%
Project Name : Project Name
Sample Name : Sample Name
Measurement No : 1
Measurement Time : 09/18/2007   09:33:19

Wavelength(nm)	Wavenumber(1/cm)	Intensity(Counts)
350.0000      	28571.4286    	2956.54541    
350.5000      	28530.6705    	2910.72729    
351.0000      	28490.0285    	2838.81812    
351.5000      	28449.5021    	2895.18188    
352.0000      	28409.0909    	2767.90918    
352.5000      	28368.7943    	2797.45459    
353.0000      	28328.6119    	2662.09082    
353.5000      	28288.5431    	2868.45459    
354.0000      	28248.5876    	2517.90918    
354.5000      	28208.7447    	2502.36353    
355.0000      	28169.0141    	2651.36353    
355.5000      	28129.3952    	2769.81812    
356.0000      	28089.8876    	2364.81812    
356.5000      	28050.4909    	2617.81812    
357.0000      	28011.2045    	2529.09082    
357.5000      	27972.0280    	2601.27271    
358.0000      	27932.9609    	2662.63647    
358.5000      	27894.0028    	3186.54541    
359.0000      	27855.1532    	2632.63647    
359.5000      	27816.4117    	2763.18188    
360.0000      	27777.7778    	2629.72729    
360.5000      	27739.2510    	2764.72729    
361.0000      	27700.8310    	2729.27271    
361.5000      	27662.5173    	3041.36353    
362.0000      	27624.3094    	2788.81812    
362.5000      	27586.2069    	2939.09082    
363.0000      	27548.2094    	2940.90918    
363.5000      	27510.3164    	2552.54541    
364.0000      	27472.5275    	2309.09082    
364.5000      	27434.8422    	2497.90918    
365.0000      	27397.2603    	2611.09082    
365.5000      	27359.7811    	2787.90918    
366.0000      	27322.4044    	2798.27271    
366.5000      	27285.1296    	2741.36353    
367.0000      	27247.9564    	2707.72729    
367.5000      	27210.8844    	3079.00000    
368.0000      	27173.9130    	2709.27271    
368.5000      	27137.0421    	3100.45459    
369.0000      	27100.2710    	2692.63647    
369.5000      	27063.5995    	2653.63647    
370.0000      	27027.0270    	3094.27271    
370.5000      	26990.5533    	2469.45459    
371.0000      	26954.1779    	2781.81812    
371.5000      	26917.9004    	2544.72729    
372.0000      	26881.7204    	2594.36353    
372.5000      	26845.6376    	2812.00000    
373.0000      	26809.6515    	2613.90918    
373.5000      	26773.7617    	2824.90918    
374.0000      	26737.9679    	3124.90918    
374.5000      	26702.2697    	2709.09082    
375.0000      	26666.6667    	2593.45459    
375.5000      	26631.1585    	2741.36353    
376.0000      	26595.7447    	2726.81812    
376.5000      	26560.4250    	2538.90918    
377.0000      	26525.1989    	2731.72729    
377.5000      	26490.0662    	2754.18188    
378.0000      	26455.0265    	2668.00000    
378.5000      	26420.0793    	2725.18188    
379.0000      	26385.2243    	2747.27271    
379.5000      	26350.4611    	2719.54541    
380.0000      	26315.7895    	2581.45459    
380.5000      	26281.2089    	2672.36353    
381.0000      	26246.7192    	2683.18188    
381.5000      	26212.3198    	2533.45459    
382.0000      	26178.0105    	2695.54541    
382.5000      	26143.7908    	2846.36353    
383.0000      	26109.6606    	2870.36353    
383.5000      	26075.6193    	2617.72729    
384.0000      	26041.6667    	3121.54541    
384.5000      	26007.8023    	2637.27271    
385.0000      	25974.0260    	2647.45459    
385.5000      	25940.3372    	2556.54541    
386.0000      	25906.7358    	2442.90918    
386.5000      	25873.2212    	2663.09082    
387.0000      	25839.7933    	2786.90918    
387.5000      	25806.4516    	2596.27271    
388.0000      	25773.1959    	2816.09082    
388.5000      	25740.0257    	2717.90918    
389.0000      	25706.9409    	2633.63647    
389.5000      	25673.9409    	2783.81812    
390.0000      	25641.0256    	2675.18188    
390.5000      	25608.1946    	2652.63647    
391.0000      	25575.4476    	2719.63647    
391.5000      	25542.7842    	3001.09082    
392.0000      	25510.2041    	2583.72729    
392.5000      	25477.7070    	2616.54541    
393.0000      	25445.2926    	2885.81812    
393.5000      	25412.9606    	2513.81812    
394.0000      	25380.7107    	3017.45459    
394.5000      	25348.5425    	2515.27271    
395.0000      	25316.4557    	2805.45459    
395.5000      	25284.4501    	2714.27271    
396.0000      	25252.5253    	3055.45459    
396.5000      	25220.6810    	2757.00000    
397.0000      	25188.9169    	2858.27271    
397.5000      	25157.2327    	2833.45459    
398.0000      	25125.6281    	2774.81812    
398.5000      	25094.1029    	2591.18188    
399.0000      	25062.6566    	2869.18188    
399.5000      	25031.2891    	3038.90918    
400.0000      	25000.0000    	2886.00000    
400.5000      	24968.7890    	2652.63647    
401.0000      	24937.6559    	2633.81812    
401.5000      	24906.6002    	2852.27271    
402.0000      	24875.6219    	2892.81812    
402.5000      	24844.7205    	2827.90918    
403.0000      	24813.8958    	2439.36353    
403.5000      	24783.1475    	2691.90918    
404.0000      	24752.4752    	2751.09082    
404.5000      	24721.8789    	3014.18188    
405.0000      	24691.3580    	2772.36353    
405.5000      	24660.9125    	2662.09082    
406.0000      	24630.5419    	2588.90918    
406.5000      	24600.2460    	2537.72729    
407.0000      	24570.0246    	2807.54541    
407.5000      	24539.8773    	2553.00000    
408.0000      	24509.8039    	2486.00000    
408.5000      	24479.8042    	2526.45459    
409.0000      	24449.8778    	2484.63647    
409.5000      	24420.0244    	2726.36353    
410.0000      	24390.2439    	2716.27271    
410.5000      	24360.5359    	2860.81812    
411.0000      	24330.9002    	2790.36353    
411.5000      	24301.3366    	2776.81812    
412.0000      	24271.8447    	2914.45459    
412.5000      	24242.4242    	2573.63647    
413.0000      	24213.0751    	2876.09082    
413.5000      	24183.7969    	2747.36353    
414.0000      	24154.5894    	2625.81812    
414.5000      	24125.4524    	2535.63647    
415.0000      	24096.3855    	2422.63647    
415.5000      	24067.3887    	2499.72729    
416.0000      	24038.4615    	2794.00000    
416.5000      	24009.6038    	2792.18188    
417.0000      	23980.8153    	2572.54541    
417.5000      	23952.0958    	2457.36353    
418.0000      	23923.4450    	2811.36353    
418.5000      	23894.8626    	2688.36353    
419.0000      	23866.3484    	2728.00000    
419.5000      	23837.9023    	2527.45459    
420.0000      	23809.5238    	2692.54541    
420.5000      	23781.2128    	2621.36353    
421.0000      	23752.9691    	2605.00000    
421.5000      	23724.7924    	2578.81812    
422.0000      	23696.6825    	2769.36353    
422.5000      	23668.6391    	2672.81812    
423.0000      	23640.6619    	2759.00000    
423.5000      	23612.7509    	2515.54541    
424.0000      	23584.9057    	2739.72729    
424.5000      	23557.1260    	2928.72729    
425.0000      	23529.4118    	2573.63647    
425.5000      	23501.7626    	2362.63647    
426.0000      	23474.1784    	2563.27271    
426.5000      	23446.6589    	2559.09082    
427.0000      	23419.2037    	2652.00000    
427.5000      	23391.8129    	2672.81812    
428.0000      	23364.4860    	2559.81812    
428.5000      	23337.2229    	2591.27271    
429.0000      	23310.0233    	3081.45459    
429.5000      	23282.8871    	2789.63647    
430.0000      	23255.8140    	2664.72729    
430.5000      	23228.8037    	2690.81812    
431.0000      	23201.8561    	3024.00000    
431.5000      	23174.9710    	2565.63647    
432.0000      	23148.1481    	2430.63647    
432.5000      	23121.3873    	2592.00000    
433.0000      	23094.6882    	2388.09082    
433.5000      	23068.0507    	2616.18188    
434.0000      	23041.4747    	2982.63647    
434.5000      	23014.9597    	2535.27271    
435.0000      	22988.5057    	2570.00000    
435.5000      	22962.1125    	3029.63647    
436.0000      	22935.7798    	2771.90918    
436.5000      	22909.5074    	2544.63647    
437.0000      	22883.2952    	2522.54541    
437.5000      	22857.1429    	2576.63647    
438.0000      	22831.0502    	2444.90918    
438.5000      	22805.0171    	2385.09082    
439.0000      	22779.0433    	2430.45459    
439.5000      	22753.1286    	2301.27271    
440.0000      	22727.2727    	3065.27271    
440.5000      	22701.4756    	2796.90918    
441.0000      	22675.7370    	3152.54541    
441.5000      	22650.0566    	2503.90918    
442.0000      	22624.4344    	2487.18188    
442.5000      	22598.8701    	2988.27271    
443.0000      	22573.3634    	2742.09082    
443.5000      	22547.9143    	2750.54541    
444.0000      	22522.5225    	2754.45459    
444.5000      	22497.1879    	2736.00000    
445.0000      	22471.9101    	2808.00000    
445.5000      	22446.6891    	2283.18188    
446.0000      	22421.5247    	2416.00000    
446.5000      	22396.4166    	2733.36353    
447.0000      	22371.3647    	2513.90918    
447.5000      	22346.3687    	2689.45459    
448.0000      	22321.4286    	2722.18188    
448.5000      	22296.5440    	2454.72729    
449.0000      	22271.7149    	2700.45459    
449.5000      	22246.9410    	3026.36353    
450.0000      	22222.2222    	2633.63647    
450.5000      	22197.5583    	2845.63647    
451.0000      	22172.9490    	2842.00000    
451.5000      	22148.3942    	2764.90918    
452.0000      	22123.8938    	2596.72729    
452.5000      	22099.4475    	2539.90918    
453.0000      	22075.0552    	2589.09082    
453.5000      	22050.7166    	2510.00000    
454.0000      	22026.4317    	2397.54541    
454.5000      	22002.2002    	2446.00000    
455.0000      	21978.0220    	2605.63647    
455.5000      	21953.8968    	2664.63647    
456.0000      	21929.8246    	2676.90918    
456.5000      	21905.8050    	2765.54541    
457.0000      	21881.8381    	2958.36353    
457.5000      	21857.9235    	2858.00000    
458.0000      	21834.0611    	2688.72729    
458.5000      	21810.2508    	2458.63647    
459.0000      	21786.4924    	3060.27271    
459.5000      	21762.7856    	2628.27271    
460.0000      	21739.1304    	2841.36353    
460.5000      	21715.5266    	2577.90918    
461.0000      	21691.9740    	2650.45459    
461.5000      	21668.4724    	2974.54541    
462.0000      	21645.0216    	2841.63647    
462.5000      	21621.6216    	2466.63647    
463.0000      	21598.2721    	2666.63647    
463.5000      	21574.9730    	2550.36353    
464.0000      	21551.7241    	2492.00000    
464.5000      	21528.5253    	2757.18188    
465.0000      	21505.3763    	2800.90918    
465.5000      	21482.2771    	2501.90918    
466.0000      	21459.2275    	3492.72729    
466.5000      	21436.2272    	2303.36353    
467.0000      	21413.2762    	2518.54541    
467.5000      	21390.3743    	2865.18188    
468.0000      	21367.5214    	2606.18188    
468.5000      	21344.7172    	2561.00000    
469.0000      	21321.9616    	3034.45459    
469.5000      	21299.2545    	2732.54541    
470.0000      	21276.5957    	2521.63647    
470.5000      	21253.9851    	2911.81812    
471.0000      	21231.4225    	2791.45459    
471.5000      	21208.9077    	2427.81812    
472.0000      	21186.4407    	2312.45459    
472.5000      	21164.0212    	2525.00000    
473.0000      	21141.6490    	2657.72729    
473.5000      	21119.3242    	2477.63647    
474.0000      	21097.0464    	2871.09082    
474.5000      	21074.8156    	2648.63647    
475.0000      	21052.6316    	2262.09082    
475.5000      	21030.4942    	2601.54541    
476.0000      	21008.4034    	2474.09082    
476.5000      	20986.3589    	2494.27271    
477.0000      	20964.3606    	2636.45459    
477.5000      	20942.4084    	2749.90918    
478.0000      	20920.5021    	2805.36353    
478.5000      	20898.6416    	2696.18188    
479.0000      	20876.8267    	2584.45459    
479.5000      	20855.0574    	2569.09082    
480.0000      	20833.3333    	2517.81812    
480.5000      	20811.6545    	2572.27271    
481.0000      	20790.0208    	2670.90918    
481.5000      	20768.4320    	2430.45459    
482.0000      	20746.8880    	2537.09082    
482.5000      	20725.3886    	2859.54541    
483.0000      	20703.9337    	2650.18188    
483.5000      	20682.5233    	2737.00000    
484.0000      	20661.1570    	2729.45459    
484.5000      	20639.8349    	2602.54541    
485.0000      	20618.5567    	2616.45459    
485.5000      	20597.3223    	2861.81812    
486.0000      	20576.1317    	2891.18188    
486.5000      	20554.9846    	2352.18188    
487.0000      	20533.8809    	2504.09082    
487.5000      	20512.8205    	2546.54541    
488.0000      	20491.8033    	3038.36353    
488.5000      	20470.8291    	2507.00000    
489.0000      	20449.8978    	2490.54541    
489.5000      	20429.0092    	2782.36353    
490.0000      	20408.1633    	2741.00000    
490.5000      	20387.3598    	2645.00000    
491.0000      	20366.5988    	2594.09082    
491.5000      	20345.8800    	2931.45459    
492.0000      	20325.2033    	2617.90918    
492.5000      	20304.5685    	2561.72729    
493.0000      	20283.9757    	2974.81812    
493.5000      	20263.4245    	2380.63647    
494.0000      	20242.9150    	2652.45459    
494.5000      	20222.4469    	2758.72729    
495.0000      	20202.0202    	2695.18188    
495.5000      	20181.6347    	2450.81812    
496.0000      	20161.2903    	2746.09082    
496.5000      	20140.9869    	2640.54541    
497.0000      	20120.7243    	2585.00000    
497.5000      	20100.5025    	2948.54541    
498.0000      	20080.3213    	2574.45459    
498.5000      	20060.1805    	2458.09082    
499.0000      	20040.0802    	3032.81812    
499.5000      	20020.0200    	2703.18188    
500.0000      	20000.0000    	2496.36353    
500.5000      	19980.0200    	2586.27271    
501.0000      	19960.0798    	2749.36353    
501.5000      	19940.1795    	2527.81812    
502.0000      	19920.3187    	2663.09082    
502.5000      	19900.4975    	2477.00000    
503.0000      	19880.7157    	2303.63647    
503.5000      	19860.9732    	2483.18188    
504.0000      	19841.2698    	2494.36353    
504.5000      	19821.6056    	2791.81812    
505.0000      	19801.9802    	2599.09082    
505.5000      	19782.3937    	2481.72729    
506.0000      	19762.8458    	2522.45459    
506.5000      	19743.3366    	2337.72729    
507.0000      	19723.8659    	2591.54541    
507.5000      	19704.4335    	2746.09082    
508.0000      	19685.0394    	2828.18188    
508.5000      	19665.6834    	2334.90918    
509.0000      	19646.3654    	2558.27271    
509.5000      	19627.0854    	2998.72729    
510.0000      	19607.8431    	3236.00000    
510.5000      	19588.6386    	2619.45459    
511.0000      	19569.4716    	2527.63647    
511.5000      	19550.3421    	2805.81812    
512.0000      	19531.2500    	2941.45459    
512.5000      	19512.1951    	2383.00000    
513.0000      	19493.1774    	2443.72729    
513.5000      	19474.1967    	2437.36353    
514.0000      	19455.2529    	2640.63647    
514.5000      	19436.3460    	2488.18188    
515.0000      	19417.4757    	2455.72729    
515.5000      	19398.6421    	2815.09082    
516.0000      	19379.8450    	2434.09082    
516.5000      	19361.0842    	2565.45459    
517.0000      	19342.3598    	2383.72729    
517.5000      	19323.6715    	2643.27271    
518.0000      	19305.0193    	2403.27271    
518.5000      	19286.4031    	2331.27271    
519.0000      	19267.8227    	2261.90918    
519.5000      	19249.2782    	2488.18188    
520.0000      	19230.7692    	2461.00000    
520.5000      	19212.2959    	2492.00000    
521.0000      	19193.8580    	2595.81812    
521.5000      	19175.4554    	2463.90918    
522.0000      	19157.0881    	2608.45459    
522.5000      	19138.7560    	2630.27271    
523.0000      	19120.4589    	2667.18188    
523.5000      	19102.1968    	2503.09082    
524.0000      	19083.9695    	2544.00000    
524.5000      	19065.7769    	2526.90918    
525.0000      	19047.6190    	2644.45459    
525.5000      	19029.4957    	2350.63647    
526.0000      	19011.4068    	2321.27271    
526.5000      	18993.3523    	2913.36353    
527.0000      	18975.3321    	2422.09082    
527.5000      	18957.3460    	2193.72729    
528.0000      	18939.3939    	2566.45459    
528.5000      	18921.4759    	2732.18188    
529.0000      	18903.5917    	2477.27271    
529.5000      	18885.7413    	2601.81812    
530.0000      	18867.9245    	2499.54541    
530.5000      	18850.1414    	2379.63647    
531.0000      	18832.3917    	2682.54541    
531.5000      	18814.6754    	2567.81812    
532.0000      	18796.9925    	2671.18188    
532.5000      	18779.3427    	2528.36353    
533.0000      	18761.7261    	2560.09082    
533.5000      	18744.1425    	2470.18188    
534.0000      	18726.5918    	2652.00000    
534.5000      	18709.0739    	2475.09082    
535.0000      	18691.5888    	2798.90918    
535.5000      	18674.1363    	2441.90918    
536.0000      	18656.7164    	2703.09082    
536.5000      	18639.3290    	2518.63647    
537.0000      	18621.9739    	2537.72729    
537.5000      	18604.6512    	2528.18188    
538.0000      	18587.3606    	2492.72729    
538.5000      	18570.1021    	2450.18188    
539.0000      	18552.8757    	2539.09082    
539.5000      	18535.6812    	2669.90918    
540.0000      	18518.5185    	2328.45459    
540.5000      	18501.3876    	2464.63647    
541.0000      	18484.2884    	2687.27271    
541.5000      	18467.2207    	2556.45459    
542.0000      	18450.1845    	2712.45459    
542.5000      	18433.1797    	2363.36353    
543.0000      	18416.2063    	2662.72729    
543.5000      	18399.2640    	2687.72729    
544.0000      	18382.3529    	2487.63647    
544.5000      	18365.4729    	2419.81812    
545.0000      	18348.6239    	2803.18188    
545.5000      	18331.8057    	2575.72729    
546.0000      	18315.0183    	2859.45459    
546.5000      	18298.2617    	2518.09082    
547.0000      	18281.5356    	2537.54541    
547.5000      	18264.8402    	2579.00000    
548.0000      	18248.1752    	2595.36353    
548.5000      	18231.5406    	2413.09082    
549.0000      	18214.9362    	2765.90918    
549.5000      	18198.3621    	2774.18188    
550.0000      	18181.8182    	2518.90918    
550.5000      	18165.3043    	2626.18188    
551.0000      	18148.8203    	2329.09082    
551.5000      	18132.3663    	2610.72729    
552.0000      	18115.9420    	2431.36353    
552.5000      	18099.5475    	2505.72729    
553.0000      	18083.1826    	2353.18188    
553.5000      	18066.8473    	3104.90918    
554.0000      	18050.5415    	2787.63647    
554.5000      	18034.2651    	2600.81812    
555.0000      	18018.0180    	2407.81812    
555.5000      	18001.8002    	2462.09082    
556.0000      	17985.6115    	2345.81812    
556.5000      	17969.4519    	2321.27271    
557.0000      	17953.3214    	2486.72729    
557.5000      	17937.2197    	2522.54541    
558.0000      	17921.1470    	2559.00000    
558.5000      	17905.1030    	2502.45459    
559.0000      	17889.0877    	2560.90918    
559.5000      	17873.1010    	2960.27271    
560.0000      	17857.1429    	2788.00000    
560.5000      	17841.2132    	2539.09082    
561.0000      	17825.3119    	2765.63647    
561.5000      	17809.4390    	2296.90918    
562.0000      	17793.5943    	2719.27271    
562.5000      	17777.7778    	2713.72729    
563.0000      	17761.9893    	2578.63647    
563.5000      	17746.2289    	2364.45459    
564.0000      	17730.4965    	2731.00000    
564.5000      	17714.7919    	2666.09082    
565.0000      	17699.1150    	2387.18188    
565.5000      	17683.4660    	2304.36353    
566.0000      	17667.8445    	2824.54541    
566.5000      	17652.2507    	2445.18188    
567.0000      	17636.6843    	2434.54541    
567.5000      	17621.1454    	2483.45459    
568.0000      	17605.6338    	2593.36353    
568.5000      	17590.1495    	2498.72729    
569.0000      	17574.6924    	2644.90918    
569.5000      	17559.2625    	2566.36353    
570.0000      	17543.8596    	2481.36353    
570.5000      	17528.4838    	2357.45459    
571.0000      	17513.1349    	2574.45459    
571.5000      	17497.8128    	2777.90918    
572.0000      	17482.5175    	2489.45459    
572.5000      	17467.2489    	2972.00000    
573.0000      	17452.0070    	2370.18188    
573.5000      	17436.7916    	2674.00000    
574.0000      	17421.6028    	2477.54541    
574.5000      	17406.4404    	2479.54541    
575.0000      	17391.3043    	2597.90918    
575.5000      	17376.1946    	2565.45459    
576.0000      	17361.1111    	2652.27271    
576.5000      	17346.0538    	2477.27271    
577.0000      	17331.0225    	2468.90918    
577.5000      	17316.0173    	2371.72729    
578.0000      	17301.0381    	2709.09082    
578.5000      	17286.0847    	2574.81812    
579.0000      	17271.1572    	2782.45459    
579.5000      	17256.2554    	2575.45459    
580.0000      	17241.3793    	3500.09082    
580.5000      	17226.5289    	2899.81812    
581.0000      	17211.7040    	2755.09082    
581.5000      	17196.9046    	2420.45459    
582.0000      	17182.1306    	2655.45459    
582.5000      	17167.3820    	2746.72729    
583.0000      	17152.6587    	2562.90918    
583.5000      	17137.9606    	2901.45459    
584.0000      	17123.2877    	2544.09082    
584.5000      	17108.6399    	2399.81812    
585.0000      	17094.0171    	2525.00000    
585.5000      	17079.4193    	2312.72729    
586.0000      	17064.8464    	2637.72729    
586.5000      	17050.2984    	2572.90918    
587.0000      	17035.7751    	2651.45459    
587.5000      	17021.2766    	2652.36353    
588.0000      	17006.8027    	2866.81812    
588.5000      	16992.3534    	2802.54541    
589.0000      	16977.9287    	2846.27271    
589.5000      	16963.5284    	2816.45459    
590.0000      	16949.1525    	3186.45459    
590.5000      	16934.8010    	2854.54541    
591.0000      	16920.4738    	2769.00000    
591.5000      	16906.1708    	3007.72729    
592.0000      	16891.8919    	2725.27271    
592.5000      	16877.6371    	2905.81812    
593.0000      	16863.4064    	2718.54541    
593.5000      	16849.1997    	2812.09082    
594.0000      	16835.0168    	2581.81812    
594.5000      	16820.8579    	3284.00000    
595.0000      	16806.7227    	2794.63647    
595.5000      	16792.6113    	2609.09082    
596.0000      	16778.5235    	3163.00000    
596.5000      	16764.4593    	2953.90918    
597.0000      	16750.4188    	2772.72729    
597.5000      	16736.4017    	2733.00000    
598.0000      	16722.4080    	3079.54541    
598.5000      	16708.4378    	3100.36353    
599.0000      	16694.4908    	3150.00000    
599.5000      	16680.5671    	2925.54541    
600.0000      	16666.6667    	3025.90918    
600.5000      	16652.7893    	3052.63647    
601.0000      	16638.9351    	3220.54541    
601.5000      	16625.1039    	2883.27271    
602.0000      	16611.2957    	2834.81812    
602.5000      	16597.5104    	2879.00000    
603.0000      	16583.7479    	2906.45459    
603.5000      	16570.0083    	2845.63647    
604.0000      	16556.2914    	2923.09082    
604.5000      	16542.5972    	3355.00000    
605.0000      	16528.9256    	3444.81812    
605.5000      	16515.2766    	3044.45459    
606.0000      	16501.6502    	3012.36353    
606.5000      	16488.0462    	3121.18188    
607.0000      	16474.4646    	3093.00000    
607.5000      	16460.9053    	3393.36353    
608.0000      	16447.3684    	3691.45459    
608.5000      	16433.8537    	3300.36353    
609.0000      	16420.3612    	3566.00000    
609.5000      	16406.8909    	3218.00000    
610.0000      	16393.4426    	3493.27271    
610.5000      	16380.0164    	3812.36353    
611.0000      	16366.6121    	3190.72729    
611.5000      	16353.2298    	3419.45459    
612.0000      	16339.8693    	3449.36353    
612.5000      	16326.5306    	3709.90918    
613.0000      	16313.2137    	3358.63647    
613.5000      	16299.9185    	3809.00000    
614.0000      	16286.6450    	3524.00000    
614.5000      	16273.3930    	3657.90918    
615.0000      	16260.1626    	3608.09082    
615.5000      	16246.9537    	3549.72729    
616.0000      	16233.7662    	3719.54541    
616.5000      	16220.6002    	3568.63647    
617.0000      	16207.4554    	3871.18188    
617.5000      	16194.3320    	3741.27271    
618.0000      	16181.2298    	3544.27271    
618.5000      	16168.1487    	4038.72729    
619.0000      	16155.0889    	4017.36353    
619.5000      	16142.0500    	3869.81812    
620.0000      	16129.0323    	4034.54541    
620.5000      	16116.0355    	4331.00000    
621.0000      	16103.0596    	4053.81812    
621.5000      	16090.1046    	3880.45459    
622.0000      	16077.1704    	4101.81836    
622.5000      	16064.2570    	4486.18164    
623.0000      	16051.3644    	4287.09082    
623.5000      	16038.4924    	4237.81836    
624.0000      	16025.6410    	4413.00000    
624.5000      	16012.8102    	4917.09082    
625.0000      	16000.0000    	4589.00000    
625.5000      	15987.2102    	4411.18164    
626.0000      	15974.4409    	4586.27295    
626.5000      	15961.6919    	4487.27295    
627.0000      	15948.9633    	4687.18164    
627.5000      	15936.2550    	4798.00000    
628.0000      	15923.5669    	4866.18164    
628.5000      	15910.8990    	4578.18164    
629.0000      	15898.2512    	4843.72705    
629.5000      	15885.6235    	4770.00000    
630.0000      	15873.0159    	4786.54541    
630.5000      	15860.4282    	5059.36377    
631.0000      	15847.8605    	5178.72705    
631.5000      	15835.3127    	5116.36377    
632.0000      	15822.7848    	5346.00000    
632.5000      	15810.2767    	5389.27295    
633.0000      	15797.7883    	5298.45459    
633.5000      	15785.3197    	5183.36377    
634.0000      	15772.8707    	5824.18164    
634.5000      	15760.4413    	5747.72705    
635.0000      	15748.0315    	5676.54541    
635.5000      	15735.6412    	5974.54541    
636.0000      	15723.2704    	5969.09082    
636.5000      	15710.9191    	5796.90918    
637.0000      	15698.5871    	6255.09082    
637.5000      	15686.2745    	6155.45459    
638.0000      	15673.9812    	6046.27295    
638.5000      	15661.7071    	5949.63623    
639.0000      	15649.4523    	6321.18164    
639.5000      	15637.2166    	6286.27295    
640.0000      	15625.0000    	6562.36377    
640.5000      	15612.8025    	6492.72705    
641.0000      	15600.6240    	6264.90918    
641.5000      	15588.4645    	6420.72705    
642.0000      	15576.3240    	5869.00000    
642.5000      	15564.2023    	6305.90918    
643.0000      	15552.0995    	5742.54541    
643.5000      	15540.0155    	5657.36377    
644.0000      	15527.9503    	5730.00000    
644.5000      	15515.9038    	5779.27295    
645.0000      	15503.8760    	5399.09082    
645.5000      	15491.8668    	5466.54541    
646.0000      	15479.8762    	5062.09082    
646.5000      	15467.9041    	5066.09082    
647.0000      	15455.9505    	4676.00000    
647.5000      	15444.0154    	4700.63623    
648.0000      	15432.0988    	4550.63623    
648.5000      	15420.2005    	4588.36377    
649.0000      	15408.3205    	4197.63623    
649.5000      	15396.4588    	4150.00000    
650.0000      	15384.6154    	3813.00000    
650.5000      	15372.7902    	3634.36353    
651.0000      	15360.9831    	3477.63647    
651.5000      	15349.1942    	3235.54541    
652.0000      	15337.4233    	3655.09082    
652.5000      	15325.6705    	3255.00000    
653.0000      	15313.9357    	3069.72729    
653.5000      	15302.2188    	3132.09082    
654.0000      	15290.5199    	3043.81812    
654.5000      	15278.8388    	2858.45459    
655.0000      	15267.1756    	2767.72729    
655.5000      	15255.5301    	2993.90918    
656.0000      	15243.9024    	2928.09082    
656.5000      	15232.2925    	2827.00000    
657.0000      	15220.7002    	2681.27271    
657.5000      	15209.1255    	3301.45459    
658.0000      	15197.5684    	2925.18188    
658.5000      	15186.0289    	2780.36353    
659.0000      	15174.5068    	2604.54541    
659.5000      	15163.0023    	2946.63647    
660.0000      	15151.5152    	2622.63647    
660.5000      	15140.0454    	2716.72729    
661.0000      	15128.5930    	2998.72729    
661.5000      	15117.1580    	3064.81812    
662.0000      	15105.7402    	2860.18188    
662.5000      	15094.3396    	3002.81812    
663.0000      	15082.9563    	2727.27271    
663.5000      	15071.5901    	2725.54541    
664.0000      	15060.2410    	2706.09082    
664.5000      	15048.9090    	2547.09082    
665.0000      	15037.5940    	2774.36353    
665.5000      	15026.2960    	2699.81812    
666.0000      	15015.0150    	2661.72729    
666.5000      	15003.7509    	2644.09082    
667.0000      	14992.5037    	2663.18188    
667.5000      	14981.2734    	2866.63647    
668.0000      	14970.0599    	2769.00000    
668.5000      	14958.8631    	2503.27271    
669.0000      	14947.6831    	2576.72729    
669.5000      	14936.5198    	2453.90918    
670.0000      	14925.3731    	2488.63647    
670.5000      	14914.2431    	2715.36353    
671.0000      	14903.1297    	2829.81812    
671.5000      	14892.0328    	2550.36353    
672.0000      	14880.9524    	2501.90918    
672.5000      	14869.8885    	2487.18188    
673.0000      	14858.8410    	2573.81812    
673.5000      	14847.8099    	2542.27271    
674.0000      	14836.7953    	2677.09082    
674.5000      	14825.7969    	3069.36353    
675.0000      	14814.8148    	2885.09082    
675.5000      	14803.8490    	2591.90918    
676.0000      	14792.8994    	2646.00000    
676.5000      	14781.9660    	2771.18188    
677.0000      	14771.0487    	3017.63647    
677.5000      	14760.1476    	2708.90918    
678.0000      	14749.2625    	2727.63647    
678.5000      	14738.3935    	2735.72729    
679.0000      	14727.5405    	3108.72729    
679.5000      	14716.7035    	2768.18188    
680.0000      	14705.8824    	2721.45459    
680.5000      	14695.0771    	2465.54541    
681.0000      	14684.2878    	2527.90918    
681.5000      	14673.5143    	2785.45459    
682.0000      	14662.7566    	2672.54541    
682.5000      	14652.0147    	2818.54541    
683.0000      	14641.2884    	2575.63647    
683.5000      	14630.5779    	2626.18188    
684.0000      	14619.8830    	2507.54541    
684.5000      	14609.2038    	2687.63647    
685.0000      	14598.5401    	2564.36353    
685.5000      	14587.8920    	2346.18188    
686.0000      	14577.2595    	2552.18188    
686.5000      	14566.6424    	2428.27271    
687.0000      	14556.0408    	2406.90918    
687.5000      	14545.4545    	2302.09082    
688.0000      	14534.8837    	2829.36353    
688.5000      	14524.3282    	3161.54541    
689.0000      	14513.7881    	2454.63647    
689.5000      	14503.2632    	2488.18188    
690.0000      	14492.7536    	2978.18188    
690.5000      	14482.2592    	2392.18188    
691.0000      	14471.7800    	2641.63647    
691.5000      	14461.3160    	2499.27271    
692.0000      	14450.8671    	2660.00000    
692.5000      	14440.4332    	3221.90918    
693.0000      	14430.0144    	2772.27271    
693.5000      	14419.6107    	2586.54541    
694.0000      	14409.2219    	2953.81812    
694.5000      	14398.8481    	2635.72729    
695.0000      	14388.4892    	2580.63647    
695.5000      	14378.1452    	2558.63647    
696.0000      	14367.8161    	2392.09082    
696.5000      	14357.5018    	2727.81812    
697.0000      	14347.2023    	2570.90918    
697.5000      	14336.9176    	2607.54541    
698.0000      	14326.6476    	2776.90918    
698.5000      	14316.3923    	2701.36353    
699.0000      	14306.1516    	2682.63647    
699.5000      	14295.9257    	2636.36353    
700.0000      	14285.7143    	2577.45459    
700.5000      	14275.5175    	2748.90918    
701.0000      	14265.3352    	3089.45459    
701.5000      	14255.1675    	2510.27271    
702.0000      	14245.0142    	2618.45459    
702.5000      	14234.8754    	2555.72729    
703.0000      	14224.7511    	2483.90918    
703.5000      	14214.6411    	2429.72729    
704.0000      	14204.5455    	2207.09082    
704.5000      	14194.4642    	2696.36353    
705.0000      	14184.3972    	2715.81812    
705.5000      	14174.3444    	2600.72729    
706.0000      	14164.3059    	2845.90918    
706.5000      	14154.2817    	2805.54541    
707.0000      	14144.2716    	2705.09082    
707.5000      	14134.2756    	2638.18188    
708.0000      	14124.2938    	2524.09082    
708.5000      	14114.3260    	2492.27271    
709.0000      	14104.3724    	2714.54541    
709.5000      	14094.4327    	3051.09082    
710.0000      	14084.5070    	2566.00000    
710.5000      	14074.5954    	2621.18188    
711.0000      	14064.6976    	2774.90918    
711.5000      	14054.8138    	2810.81812    
712.0000      	14044.9438    	2706.09082    
712.5000      	14035.0877    	2724.27271    
713.0000      	14025.2454    	2565.72729    
713.5000      	14015.4170    	3023.45459    
714.0000      	14005.6022    	2777.72729    
714.5000      	13995.8013    	2983.09082    
715.0000      	13986.0140    	2417.90918    
715.5000      	13976.2404    	2584.81812    
716.0000      	13966.4804    	2650.54541    
716.5000      	13956.7341    	2640.36353    
717.0000      	13947.0014    	2658.36353    
717.5000      	13937.2822    	2547.27271    
718.0000      	13927.5766    	2694.81812    
718.5000      	13917.8845    	2682.09082    
719.0000      	13908.2058    	2530.81812    
719.5000      	13898.5407    	2649.36353    
720.0000      	13888.8889    	2862.81812    
720.5000      	13879.2505    	2685.54541    
721.0000      	13869.6255    	2599.81812    
721.5000      	13860.0139    	2560.00000    
722.0000      	13850.4155    	2619.36353    
722.5000      	13840.8304    	2202.00000    
723.0000      	13831.2586    	2498.09082    
723.5000      	13821.7001    	2424.54541    
724.0000      	13812.1547    	2330.90918    
724.5000      	13802.6225    	2331.36353    
725.0000      	13793.1034    	2581.90918    
725.5000      	13783.5975    	2548.27271    
726.0000      	13774.1047    	2455.09082    
726.5000      	13764.6249    	2652.27271    
727.0000      	13755.1582    	2451.90918    
727.5000      	13745.7045    	2499.45459    
728.0000      	13736.2637    	2629.00000    
728.5000      	13726.8360    	2599.09082    
729.0000      	13717.4211    	2689.90918    
729.5000      	13708.0192    	2654.00000    
730.0000      	13698.6301    	2672.00000    
730.5000      	13689.2539    	2659.45459    
731.0000      	13679.8906    	2750.72729    
731.5000      	13670.5400    	2619.81812    
732.0000      	13661.2022    	2542.54541    
732.5000      	13651.8771    	2801.09082    
733.0000      	13642.5648    	2600.09082    
733.5000      	13633.2652    	2812.63647    
734.0000      	13623.9782    	2751.63647    
734.5000      	13614.7039    	2472.63647    
735.0000      	13605.4422    	2746.54541    
735.5000      	13596.1931    	2582.63647    
736.0000      	13586.9565    	2705.81812    
736.5000      	13577.7325    	2886.72729    
737.0000      	13568.5210    	2735.63647    
737.5000      	13559.3220    	2505.09082    
738.0000      	13550.1355    	2574.36353    
738.5000      	13540.9614    	2504.81812    
739.0000      	13531.7997    	2367.00000    
739.5000      	13522.6504    	2458.36353    
740.0000      	13513.5135    	2469.27271    
740.5000      	13504.3889    	2232.09082    
741.0000      	13495.2767    	2584.45459    
741.5000      	13486.1767    	2908.45459    
742.0000      	13477.0889    	3064.18188    
742.5000      	13468.0135    	2445.81812    
743.0000      	13458.9502    	2504.36353    
743.5000      	13449.8991    	2584.63647    
744.0000      	13440.8602    	2527.18188    
744.5000      	13431.8334    	2740.27271    
745.0000      	13422.8188    	2543.63647    
745.5000      	13413.8162    	2339.09082    
746.0000      	13404.8257    	2377.18188    
746.5000      	13395.8473    	2613.90918    
747.0000      	13386.8809    	2408.09082    
747.5000      	13377.9264    	2676.72729    
748.0000      	13368.9840    	2448.90918    
748.5000      	13360.0534    	2561.27271    
749.0000      	13351.1348    	2517.18188    
749.5000      	13342.2282    	2422.00000    
750.0000      	13333.3333    	2441.45459    
750.5000      	13324.4504    	2562.00000    
751.0000      	13315.5792    	2675.45459    
751.5000      	13306.7199    	2791.54541    
752.0000      	13297.8723    	2936.36353    
752.5000      	13289.0365    	2997.27271    
753.0000      	13280.2125    	3109.54541    
753.5000      	13271.4001    	2770.54541    
754.0000      	13262.5995    	2591.27271    
754.5000      	13253.8105    	2825.63647    
755.0000      	13245.0331    	2687.72729    
755.5000      	13236.2674    	2584.63647    
756.0000      	13227.5132    	2633.00000    
756.5000      	13218.7707    	2765.09082    
757.0000      	13210.0396    	2597.72729    
757.5000      	13201.3201    	2551.09082    
758.0000      	13192.6121    	2730.81812    
758.5000      	13183.9156    	2766.72729    
759.0000      	13175.2306    	2953.54541    
759.5000      	13166.5569    	2474.36353    
760.0000      	13157.8947    	2668.09082    
760.5000      	13149.2439    	2981.45459    
761.0000      	13140.6045    	2455.54541    
761.5000      	13131.9764    	2863.09082    
762.0000      	13123.3596    	2637.63647    
762.5000      	13114.7541    	2560.90918    
763.0000      	13106.1599    	2575.81812    
763.5000      	13097.5769    	2692.00000    
764.0000      	13089.0052    	2608.18188    
764.5000      	13080.4447    	2314.27271    
765.0000      	13071.8954    	2421.54541    
765.5000      	13063.3573    	2623.09082    
766.0000      	13054.8303    	2675.63647    
766.5000      	13046.3144    	2736.00000    
767.0000      	13037.8096    	2589.45459    
767.5000      	13029.3160    	2310.45459    
768.0000      	13020.8333    	2643.81812    
768.5000      	13012.3617    	2825.63647    
769.0000      	13003.9012    	2749.45459    
769.5000      	12995.4516    	2744.09082    
770.0000      	12987.0130    	2651.81812    
770.5000      	12978.5853    	2578.36353    
771.0000      	12970.1686    	2842.45459    
771.5000      	12961.7628    	3088.18188    
772.0000      	12953.3679    	2572.90918    
772.5000      	12944.9838    	2584.45459    
773.0000      	12936.6106    	2643.00000    
773.5000      	12928.2482    	2682.90918    
774.0000      	12919.8966    	2672.54541    
774.5000      	12911.5558    	2558.63647    
775.0000      	12903.2258    	2643.45459    
775.5000      	12894.9065    	2668.81812    
776.0000      	12886.5979    	2607.72729    
776.5000      	12878.3001    	2554.72729    
777.0000      	12870.0129    	2572.54541    
777.5000      	12861.7363    	2391.27271    
778.0000      	12853.4704    	2540.45459    
778.5000      	12845.2152    	2929.27271    
779.0000      	12836.9705    	2790.63647    
779.5000      	12828.7364    	2834.90918    
780.0000      	12820.5128    	2470.90918    
780.5000      	12812.2998    	2410.54541    
781.0000      	12804.0973    	2537.00000    
781.5000      	12795.9053    	2736.63647    
782.0000      	12787.7238    	2698.45459    
782.5000      	12779.5527    	2515.72729    
783.0000      	12771.3921    	2413.00000    
783.5000      	12763.2419    	2525.81812    
784.0000      	12755.1020    	2400.63647    
784.5000      	12746.9726    	2874.09082    
785.0000      	12738.8535    	2593.00000    
785.5000      	12730.7447    	2568.90918    
786.0000      	12722.6463    	2502.63647    
786.5000      	12714.5582    	2518.63647    
787.0000      	12706.4803    	2812.72729    
787.5000      	12698.4127    	2636.36353    
788.0000      	12690.3553    	2978.63647    
788.5000      	12682.3082    	2644.72729    
789.0000      	12674.2712    	2758.18188    
789.5000      	12666.2445    	2630.81812    
790.0000      	12658.2278    	2575.63647    
790.5000      	12650.2214    	2571.18188    
791.0000      	12642.2250    	2459.81812    
791.5000      	12634.2388    	2550.09082    
792.0000      	12626.2626    	2705.54541    
792.5000      	12618.2965    	2646.09082    
793.0000      	12610.3405    	2540.27271    
793.5000      	12602.3945    	2400.36353    
794.0000      	12594.4584    	2724.00000    
794.5000      	12586.5324    	2752.09082    
795.0000      	12578.6164    	2763.90918    
795.5000      	12570.7102    	2745.45459    
796.0000      	12562.8141    	2487.81812    
796.5000      	12554.9278    	2481.54541    
797.0000      	12547.0514    	2732.00000    
797.5000      	12539.1850    	2601.00000    
798.0000      	12531.3283    	2589.36353    
798.5000      	12523.4815    	2446.36353    
799.0000      	12515.6446    	2392.81812    
799.5000      	12507.8174    	2706.63647    
800.0000      	12500.0000    	2871.81812    
