Unit Serial No : 240-LV0P465-EU
Integration Time : 249 ms
Time Average: 11
Binning Average: 0
FFT Smoothing: 0%
Project Name : Project Name
Sample Name : Sample Name
Measurement No : 1
Measurement Time : 09/18/2007   09:32:35

Wavelength(nm)	Wavenumber(1/cm)	Intensity(Counts)
350.0000      	28571.4286    	3043.09082    
350.5000      	28530.6705    	2982.54541    
351.0000      	28490.0285    	2928.45459    
351.5000      	28449.5021    	2997.63647    
352.0000      	28409.0909    	2889.36353    
352.5000      	28368.7943    	2896.63647    
353.0000      	28328.6119    	2769.27271    
353.5000      	28288.5431    	2974.18188    
354.0000      	28248.5876    	2608.27271    
354.5000      	28208.7447    	2605.45459    
355.0000      	28169.0141    	2776.45459    
355.5000      	28129.3952    	2871.27271    
356.0000      	28089.8876    	2438.27271    
356.5000      	28050.4909    	2671.63647    
357.0000      	28011.2045    	2629.27271    
357.5000      	27972.0280    	2717.36353    
358.0000      	27932.9609    	2753.18188    
358.5000      	27894.0028    	3274.63647    
359.0000      	27855.1532    	2715.81812    
359.5000      	27816.4117    	2860.36353    
360.0000      	27777.7778    	2747.81812    
360.5000      	27739.2510    	2854.72729    
361.0000      	27700.8310    	2830.45459    
361.5000      	27662.5173    	3136.63647    
362.0000      	27624.3094    	2853.90918    
362.5000      	27586.2069    	3023.90918    
363.0000      	27548.2094    	3039.18188    
363.5000      	27510.3164    	2653.90918    
364.0000      	27472.5275    	2424.90918    
364.5000      	27434.8422    	2591.54541    
365.0000      	27397.2603    	2703.72729    
365.5000      	27359.7811    	2900.72729    
366.0000      	27322.4044    	2929.54541    
366.5000      	27285.1296    	2812.27271    
367.0000      	27247.9564    	2778.81812    
367.5000      	27210.8844    	3165.18188    
368.0000      	27173.9130    	2761.90918    
368.5000      	27137.0421    	3163.45459    
369.0000      	27100.2710    	2798.54541    
369.5000      	27063.5995    	2777.18188    
370.0000      	27027.0270    	3189.18188    
370.5000      	26990.5533    	2548.54541    
371.0000      	26954.1779    	2899.27271    
371.5000      	26917.9004    	2665.63647    
372.0000      	26881.7204    	2715.36353    
372.5000      	26845.6376    	2963.00000    
373.0000      	26809.6515    	2714.18188    
373.5000      	26773.7617    	2935.09082    
374.0000      	26737.9679    	3240.00000    
374.5000      	26702.2697    	2839.45459    
375.0000      	26666.6667    	2744.54541    
375.5000      	26631.1585    	2893.63647    
376.0000      	26595.7447    	2830.45459    
376.5000      	26560.4250    	2634.27271    
377.0000      	26525.1989    	2853.81812    
377.5000      	26490.0662    	2876.90918    
378.0000      	26455.0265    	2800.00000    
378.5000      	26420.0793    	2807.09082    
379.0000      	26385.2243    	2818.81812    
379.5000      	26350.4611    	2824.63647    
380.0000      	26315.7895    	2688.54541    
380.5000      	26281.2089    	2770.36353    
381.0000      	26246.7192    	2779.36353    
381.5000      	26212.3198    	2630.63647    
382.0000      	26178.0105    	2786.81812    
382.5000      	26143.7908    	2903.90918    
383.0000      	26109.6606    	2957.63647    
383.5000      	26075.6193    	2717.36353    
384.0000      	26041.6667    	3216.72729    
384.5000      	26007.8023    	2710.81812    
385.0000      	25974.0260    	2709.45459    
385.5000      	25940.3372    	2651.72729    
386.0000      	25906.7358    	2542.54541    
386.5000      	25873.2212    	2779.18188    
387.0000      	25839.7933    	2821.45459    
387.5000      	25806.4516    	2658.81812    
388.0000      	25773.1959    	2881.36353    
388.5000      	25740.0257    	2830.18188    
389.0000      	25706.9409    	2754.72729    
389.5000      	25673.9409    	2917.72729    
390.0000      	25641.0256    	2775.63647    
390.5000      	25608.1946    	2775.45459    
391.0000      	25575.4476    	2793.36353    
391.5000      	25542.7842    	3090.09082    
392.0000      	25510.2041    	2682.27271    
392.5000      	25477.7070    	2679.36353    
393.0000      	25445.2926    	2960.36353    
393.5000      	25412.9606    	2600.45459    
394.0000      	25380.7107    	3113.90918    
394.5000      	25348.5425    	2660.18188    
395.0000      	25316.4557    	2900.09082    
395.5000      	25284.4501    	2828.00000    
396.0000      	25252.5253    	3113.90918    
396.5000      	25220.6810    	2832.90918    
397.0000      	25188.9169    	2936.09082    
397.5000      	25157.2327    	2910.09082    
398.0000      	25125.6281    	2869.36353    
398.5000      	25094.1029    	2689.27271    
399.0000      	25062.6566    	2932.81812    
399.5000      	25031.2891    	3119.18188    
400.0000      	25000.0000    	2991.18188    
400.5000      	24968.7890    	2789.09082    
401.0000      	24937.6559    	2759.36353    
401.5000      	24906.6002    	2975.63647    
402.0000      	24875.6219    	2988.09082    
402.5000      	24844.7205    	2922.63647    
403.0000      	24813.8958    	2567.45459    
403.5000      	24783.1475    	2848.09082    
404.0000      	24752.4752    	2891.81812    
404.5000      	24721.8789    	3146.72729    
405.0000      	24691.3580    	2872.90918    
405.5000      	24660.9125    	2738.81812    
406.0000      	24630.5419    	2697.00000    
406.5000      	24600.2460    	2678.27271    
407.0000      	24570.0246    	2882.54541    
407.5000      	24539.8773    	2632.90918    
408.0000      	24509.8039    	2530.27271    
408.5000      	24479.8042    	2585.18188    
409.0000      	24449.8778    	2542.63647    
409.5000      	24420.0244    	2809.09082    
410.0000      	24390.2439    	2780.00000    
410.5000      	24360.5359    	2901.18188    
411.0000      	24330.9002    	2851.63647    
411.5000      	24301.3366    	2866.00000    
412.0000      	24271.8447    	2991.54541    
412.5000      	24242.4242    	2641.09082    
413.0000      	24213.0751    	2920.72729    
413.5000      	24183.7969    	2788.18188    
414.0000      	24154.5894    	2695.54541    
414.5000      	24125.4524    	2603.72729    
415.0000      	24096.3855    	2488.09082    
415.5000      	24067.3887    	2557.45459    
416.0000      	24038.4615    	2831.45459    
416.5000      	24009.6038    	2823.09082    
417.0000      	23980.8153    	2593.36353    
417.5000      	23952.0958    	2523.09082    
418.0000      	23923.4450    	2884.54541    
418.5000      	23894.8626    	2786.72729    
419.0000      	23866.3484    	2767.36353    
419.5000      	23837.9023    	2554.81812    
420.0000      	23809.5238    	2711.27271    
420.5000      	23781.2128    	2695.09082    
421.0000      	23752.9691    	2634.72729    
421.5000      	23724.7924    	2618.63647    
422.0000      	23696.6825    	2812.18188    
422.5000      	23668.6391    	2715.72729    
423.0000      	23640.6619    	2828.27271    
423.5000      	23612.7509    	2548.90918    
424.0000      	23584.9057    	2799.18188    
424.5000      	23557.1260    	2993.36353    
425.0000      	23529.4118    	2588.63647    
425.5000      	23501.7626    	2441.09082    
426.0000      	23474.1784    	2665.63647    
426.5000      	23446.6589    	2629.90918    
427.0000      	23419.2037    	2737.81812    
427.5000      	23391.8129    	2721.36353    
428.0000      	23364.4860    	2585.36353    
428.5000      	23337.2229    	2657.09082    
429.0000      	23310.0233    	3156.72729    
429.5000      	23282.8871    	2873.36353    
430.0000      	23255.8140    	2729.18188    
430.5000      	23228.8037    	2718.27271    
431.0000      	23201.8561    	3057.00000    
431.5000      	23174.9710    	2636.72729    
432.0000      	23148.1481    	2496.18188    
432.5000      	23121.3873    	2682.81812    
433.0000      	23094.6882    	2414.18188    
433.5000      	23068.0507    	2669.18188    
434.0000      	23041.4747    	3035.00000    
434.5000      	23014.9597    	2583.63647    
435.0000      	22988.5057    	2682.45459    
435.5000      	22962.1125    	3103.90918    
436.0000      	22935.7798    	2819.27271    
436.5000      	22909.5074    	2592.09082    
437.0000      	22883.2952    	2595.27271    
437.5000      	22857.1429    	2637.63647    
438.0000      	22831.0502    	2520.45459    
438.5000      	22805.0171    	2417.54541    
439.0000      	22779.0433    	2476.45459    
439.5000      	22753.1286    	2347.27271    
440.0000      	22727.2727    	3070.09082    
440.5000      	22701.4756    	2849.54541    
441.0000      	22675.7370    	3219.72729    
441.5000      	22650.0566    	2579.27271    
442.0000      	22624.4344    	2543.90918    
442.5000      	22598.8701    	3046.54541    
443.0000      	22573.3634    	2814.63647    
443.5000      	22547.9143    	2825.18188    
444.0000      	22522.5225    	2820.36353    
444.5000      	22497.1879    	2825.72729    
445.0000      	22471.9101    	2887.27271    
445.5000      	22446.6891    	2327.90918    
446.0000      	22421.5247    	2453.09082    
446.5000      	22396.4166    	2757.00000    
447.0000      	22371.3647    	2610.36353    
447.5000      	22346.3687    	2757.27271    
448.0000      	22321.4286    	2773.36353    
448.5000      	22296.5440    	2511.54541    
449.0000      	22271.7149    	2746.54541    
449.5000      	22246.9410    	3100.90918    
450.0000      	22222.2222    	2697.09082    
450.5000      	22197.5583    	2884.00000    
451.0000      	22172.9490    	2869.36353    
451.5000      	22148.3942    	2790.00000    
452.0000      	22123.8938    	2612.36353    
452.5000      	22099.4475    	2610.00000    
453.0000      	22075.0552    	2656.09082    
453.5000      	22050.7166    	2565.09082    
454.0000      	22026.4317    	2437.63647    
454.5000      	22002.2002    	2464.90918    
455.0000      	21978.0220    	2647.63647    
455.5000      	21953.8968    	2722.63647    
456.0000      	21929.8246    	2713.72729    
456.5000      	21905.8050    	2784.00000    
457.0000      	21881.8381    	2968.09082    
457.5000      	21857.9235    	2858.18188    
458.0000      	21834.0611    	2710.54541    
458.5000      	21810.2508    	2509.36353    
459.0000      	21786.4924    	3073.90918    
459.5000      	21762.7856    	2653.18188    
460.0000      	21739.1304    	2862.27271    
460.5000      	21715.5266    	2668.36353    
461.0000      	21691.9740    	2699.18188    
461.5000      	21668.4724    	3025.27271    
462.0000      	21645.0216    	2876.45459    
462.5000      	21621.6216    	2522.90918    
463.0000      	21598.2721    	2688.81812    
463.5000      	21574.9730    	2602.54541    
464.0000      	21551.7241    	2555.09082    
464.5000      	21528.5253    	2800.63647    
465.0000      	21505.3763    	2839.45459    
465.5000      	21482.2771    	2517.27271    
466.0000      	21459.2275    	3767.18188    
466.5000      	21436.2272    	2393.54541    
467.0000      	21413.2762    	2580.27271    
467.5000      	21390.3743    	2896.18188    
468.0000      	21367.5214    	2637.36353    
468.5000      	21344.7172    	2635.00000    
469.0000      	21321.9616    	3028.63647    
469.5000      	21299.2545    	2776.36353    
470.0000      	21276.5957    	2562.54541    
470.5000      	21253.9851    	2957.81812    
471.0000      	21231.4225    	2811.63647    
471.5000      	21208.9077    	2441.36353    
472.0000      	21186.4407    	2398.09082    
472.5000      	21164.0212    	2596.27271    
473.0000      	21141.6490    	2735.27271    
473.5000      	21119.3242    	2553.63647    
474.0000      	21097.0464    	2918.00000    
474.5000      	21074.8156    	2680.63647    
475.0000      	21052.6316    	2303.18188    
475.5000      	21030.4942    	2686.27271    
476.0000      	21008.4034    	2528.00000    
476.5000      	20986.3589    	2584.18188    
477.0000      	20964.3606    	2689.72729    
477.5000      	20942.4084    	2790.81812    
478.0000      	20920.5021    	2852.63647    
478.5000      	20898.6416    	2755.18188    
479.0000      	20876.8267    	2643.27271    
479.5000      	20855.0574    	2615.18188    
480.0000      	20833.3333    	2570.00000    
480.5000      	20811.6545    	2616.54541    
481.0000      	20790.0208    	2701.90918    
481.5000      	20768.4320    	2480.09082    
482.0000      	20746.8880    	2593.00000    
482.5000      	20725.3886    	2923.81812    
483.0000      	20703.9337    	2667.36353    
483.5000      	20682.5233    	2742.72729    
484.0000      	20661.1570    	2777.00000    
484.5000      	20639.8349    	2629.36353    
485.0000      	20618.5567    	2669.36353    
485.5000      	20597.3223    	2862.72729    
486.0000      	20576.1317    	2889.45459    
486.5000      	20554.9846    	2376.72729    
487.0000      	20533.8809    	2577.54541    
487.5000      	20512.8205    	2588.18188    
488.0000      	20491.8033    	3059.72729    
488.5000      	20470.8291    	2542.27271    
489.0000      	20449.8978    	2517.81812    
489.5000      	20429.0092    	2785.63647    
490.0000      	20408.1633    	2785.72729    
490.5000      	20387.3598    	2680.45459    
491.0000      	20366.5988    	2619.72729    
491.5000      	20345.8800    	2963.81812    
492.0000      	20325.2033    	2634.54541    
492.5000      	20304.5685    	2577.18188    
493.0000      	20283.9757    	3043.45459    
493.5000      	20263.4245    	2431.45459    
494.0000      	20242.9150    	2695.45459    
494.5000      	20222.4469    	2777.54541    
495.0000      	20202.0202    	2717.36353    
495.5000      	20181.6347    	2466.36353    
496.0000      	20161.2903    	2793.00000    
496.5000      	20140.9869    	2691.27271    
497.0000      	20120.7243    	2594.09082    
497.5000      	20100.5025    	2961.63647    
498.0000      	20080.3213    	2597.90918    
498.5000      	20060.1805    	2497.72729    
499.0000      	20040.0802    	3058.00000    
499.5000      	20020.0200    	2749.63647    
500.0000      	20000.0000    	2518.27271    
500.5000      	19980.0200    	2641.27271    
501.0000      	19960.0798    	2778.36353    
501.5000      	19940.1795    	2545.18188    
502.0000      	19920.3187    	2672.27271    
502.5000      	19900.4975    	2488.45459    
503.0000      	19880.7157    	2323.27271    
503.5000      	19860.9732    	2509.09082    
504.0000      	19841.2698    	2531.18188    
504.5000      	19821.6056    	2800.27271    
505.0000      	19801.9802    	2643.54541    
505.5000      	19782.3937    	2502.45459    
506.0000      	19762.8458    	2591.27271    
506.5000      	19743.3366    	2353.18188    
507.0000      	19723.8659    	2611.81812    
507.5000      	19704.4335    	2761.00000    
508.0000      	19685.0394    	2840.36353    
508.5000      	19665.6834    	2382.36353    
509.0000      	19646.3654    	2591.27271    
509.5000      	19627.0854    	3010.72729    
510.0000      	19607.8431    	3209.00000    
510.5000      	19588.6386    	2625.00000    
511.0000      	19569.4716    	2537.63647    
511.5000      	19550.3421    	2779.27271    
512.0000      	19531.2500    	2958.18188    
512.5000      	19512.1951    	2435.54541    
513.0000      	19493.1774    	2456.81812    
513.5000      	19474.1967    	2453.18188    
514.0000      	19455.2529    	2643.63647    
514.5000      	19436.3460    	2539.09082    
515.0000      	19417.4757    	2473.90918    
515.5000      	19398.6421    	2830.36353    
516.0000      	19379.8450    	2472.54541    
516.5000      	19361.0842    	2577.72729    
517.0000      	19342.3598    	2442.54541    
517.5000      	19323.6715    	2718.27271    
518.0000      	19305.0193    	2481.72729    
518.5000      	19286.4031    	2389.27271    
519.0000      	19267.8227    	2303.72729    
519.5000      	19249.2782    	2534.36353    
520.0000      	19230.7692    	2519.54541    
520.5000      	19212.2959    	2543.27271    
521.0000      	19193.8580    	2652.36353    
521.5000      	19175.4554    	2498.27271    
522.0000      	19157.0881    	2618.90918    
522.5000      	19138.7560    	2639.45459    
523.0000      	19120.4589    	2709.36353    
523.5000      	19102.1968    	2506.54541    
524.0000      	19083.9695    	2605.36353    
524.5000      	19065.7769    	2540.54541    
525.0000      	19047.6190    	2640.45459    
525.5000      	19029.4957    	2359.63647    
526.0000      	19011.4068    	2372.54541    
526.5000      	18993.3523    	2959.36353    
527.0000      	18975.3321    	2503.54541    
527.5000      	18957.3460    	2216.90918    
528.0000      	18939.3939    	2572.54541    
528.5000      	18921.4759    	2761.81812    
529.0000      	18903.5917    	2537.72729    
529.5000      	18885.7413    	2627.27271    
530.0000      	18867.9245    	2554.36353    
530.5000      	18850.1414    	2433.54541    
531.0000      	18832.3917    	2717.27271    
531.5000      	18814.6754    	2597.09082    
532.0000      	18796.9925    	2733.90918    
532.5000      	18779.3427    	2558.63647    
533.0000      	18761.7261    	2579.63647    
533.5000      	18744.1425    	2489.90918    
534.0000      	18726.5918    	2670.18188    
534.5000      	18709.0739    	2509.63647    
535.0000      	18691.5888    	2817.27271    
535.5000      	18674.1363    	2492.27271    
536.0000      	18656.7164    	2761.18188    
536.5000      	18639.3290    	2534.27271    
537.0000      	18621.9739    	2592.27271    
537.5000      	18604.6512    	2631.90918    
538.0000      	18587.3606    	2560.09082    
538.5000      	18570.1021    	2515.09082    
539.0000      	18552.8757    	2577.45459    
539.5000      	18535.6812    	2719.00000    
540.0000      	18518.5185    	2374.27271    
540.5000      	18501.3876    	2523.90918    
541.0000      	18484.2884    	2758.27271    
541.5000      	18467.2207    	2613.09082    
542.0000      	18450.1845    	2758.54541    
542.5000      	18433.1797    	2410.36353    
543.0000      	18416.2063    	2701.72729    
543.5000      	18399.2640    	2743.09082    
544.0000      	18382.3529    	2558.27271    
544.5000      	18365.4729    	2500.00000    
545.0000      	18348.6239    	2887.36353    
545.5000      	18331.8057    	2642.00000    
546.0000      	18315.0183    	2935.54541    
546.5000      	18298.2617    	2590.72729    
547.0000      	18281.5356    	2606.18188    
547.5000      	18264.8402    	2696.00000    
548.0000      	18248.1752    	2714.36353    
548.5000      	18231.5406    	2495.54541    
549.0000      	18214.9362    	2741.90918    
549.5000      	18198.3621    	2800.27271    
550.0000      	18181.8182    	2576.09082    
550.5000      	18165.3043    	2682.54541    
551.0000      	18148.8203    	2372.90918    
551.5000      	18132.3663    	2645.45459    
552.0000      	18115.9420    	2454.09082    
552.5000      	18099.5475    	2549.00000    
553.0000      	18083.1826    	2392.81812    
553.5000      	18066.8473    	3151.27271    
554.0000      	18050.5415    	2830.18188    
554.5000      	18034.2651    	2646.18188    
555.0000      	18018.0180    	2437.90918    
555.5000      	18001.8002    	2504.09082    
556.0000      	17985.6115    	2413.81812    
556.5000      	17969.4519    	2416.27271    
557.0000      	17953.3214    	2528.18188    
557.5000      	17937.2197    	2551.54541    
558.0000      	17921.1470    	2577.27271    
558.5000      	17905.1030    	2464.00000    
559.0000      	17889.0877    	2606.63647    
559.5000      	17873.1010    	3020.63647    
560.0000      	17857.1429    	2842.18188    
560.5000      	17841.2132    	2577.09082    
561.0000      	17825.3119    	2779.54541    
561.5000      	17809.4390    	2387.63647    
562.0000      	17793.5943    	2741.00000    
562.5000      	17777.7778    	2763.27271    
563.0000      	17761.9893    	2661.45459    
563.5000      	17746.2289    	2438.63647    
564.0000      	17730.4965    	2808.36353    
564.5000      	17714.7919    	2734.90918    
565.0000      	17699.1150    	2456.90918    
565.5000      	17683.4660    	2406.63647    
566.0000      	17667.8445    	2873.81812    
566.5000      	17652.2507    	2527.81812    
567.0000      	17636.6843    	2521.72729    
567.5000      	17621.1454    	2534.27271    
568.0000      	17605.6338    	2668.00000    
568.5000      	17590.1495    	2575.36353    
569.0000      	17574.6924    	2726.54541    
569.5000      	17559.2625    	2671.36353    
570.0000      	17543.8596    	2596.54541    
570.5000      	17528.4838    	2446.27271    
571.0000      	17513.1349    	2694.36353    
571.5000      	17497.8128    	2890.00000    
572.0000      	17482.5175    	2590.00000    
572.5000      	17467.2489    	3089.27271    
573.0000      	17452.0070    	2486.27271    
573.5000      	17436.7916    	2797.45459    
574.0000      	17421.6028    	2595.81812    
574.5000      	17406.4404    	2633.72729    
575.0000      	17391.3043    	2732.27271    
575.5000      	17376.1946    	2740.27271    
576.0000      	17361.1111    	2801.72729    
576.5000      	17346.0538    	2624.72729    
577.0000      	17331.0225    	2617.81812    
577.5000      	17316.0173    	2551.00000    
578.0000      	17301.0381    	2846.54541    
578.5000      	17286.0847    	2766.00000    
579.0000      	17271.1572    	2987.63647    
579.5000      	17256.2554    	2785.09082    
580.0000      	17241.3793    	3691.09082    
580.5000      	17226.5289    	3085.54541    
581.0000      	17211.7040    	2994.45459    
581.5000      	17196.9046    	2658.18188    
582.0000      	17182.1306    	2869.27271    
582.5000      	17167.3820    	2980.36353    
583.0000      	17152.6587    	2835.36353    
583.5000      	17137.9606    	3169.09082    
584.0000      	17123.2877    	2826.81812    
584.5000      	17108.6399    	2705.63647    
585.0000      	17094.0171    	2814.00000    
585.5000      	17079.4193    	2596.81812    
586.0000      	17064.8464    	2957.45459    
586.5000      	17050.2984    	2900.81812    
587.0000      	17035.7751    	3025.45459    
587.5000      	17021.2766    	3021.63647    
588.0000      	17006.8027    	3206.63647    
588.5000      	16992.3534    	3171.90918    
589.0000      	16977.9287    	3253.81812    
589.5000      	16963.5284    	3200.09082    
590.0000      	16949.1525    	3607.45459    
590.5000      	16934.8010    	3271.54541    
591.0000      	16920.4738    	3177.36353    
591.5000      	16906.1708    	3474.81812    
592.0000      	16891.8919    	3155.00000    
592.5000      	16877.6371    	3385.72729    
593.0000      	16863.4064    	3247.72729    
593.5000      	16849.1997    	3344.54541    
594.0000      	16835.0168    	3094.63647    
594.5000      	16820.8579    	3865.63647    
595.0000      	16806.7227    	3371.36353    
595.5000      	16792.6113    	3234.27271    
596.0000      	16778.5235    	3754.36353    
596.5000      	16764.4593    	3572.90918    
597.0000      	16750.4188    	3366.09082    
597.5000      	16736.4017    	3345.09082    
598.0000      	16722.4080    	3752.54541    
598.5000      	16708.4378    	3790.90918    
599.0000      	16694.4908    	3882.72729    
599.5000      	16680.5671    	3650.81812    
600.0000      	16666.6667    	3772.54541    
600.5000      	16652.7893    	3837.54541    
601.0000      	16638.9351    	4019.90918    
601.5000      	16625.1039    	3737.90918    
602.0000      	16611.2957    	3737.00000    
602.5000      	16597.5104    	3806.81812    
603.0000      	16583.7479    	3845.72729    
603.5000      	16570.0083    	3805.45459    
604.0000      	16556.2914    	3882.18188    
604.5000      	16542.5972    	4374.09082    
605.0000      	16528.9256    	4506.72705    
605.5000      	16515.2766    	4212.45459    
606.0000      	16501.6502    	4156.27295    
606.5000      	16488.0462    	4326.09082    
607.0000      	16474.4646    	4321.45459    
607.5000      	16460.9053    	4649.00000    
608.0000      	16447.3684    	5021.54541    
608.5000      	16433.8537    	4736.36377    
609.0000      	16420.3612    	5023.63623    
609.5000      	16406.8909    	4681.45459    
610.0000      	16393.4426    	5066.00000    
610.5000      	16380.0164    	5461.36377    
611.0000      	16366.6121    	4881.54541    
611.5000      	16353.2298    	5128.09082    
612.0000      	16339.8693    	5222.54541    
612.5000      	16326.5306    	5543.63623    
613.0000      	16313.2137    	5286.27295    
613.5000      	16299.9185    	5796.63623    
614.0000      	16286.6450    	5652.63623    
614.5000      	16273.3930    	5833.90918    
615.0000      	16260.1626    	5801.09082    
615.5000      	16246.9537    	5766.45459    
616.0000      	16233.7662    	5992.72705    
616.5000      	16220.6002    	5925.00000    
617.0000      	16207.4554    	6372.09082    
617.5000      	16194.3320    	6246.36377    
618.0000      	16181.2298    	6153.00000    
618.5000      	16168.1487    	6738.45459    
619.0000      	16155.0889    	6821.72705    
619.5000      	16142.0500    	6707.63623    
620.0000      	16129.0323    	6986.27295    
620.5000      	16116.0355    	7356.63623    
621.0000      	16103.0596    	7148.09082    
621.5000      	16090.1046    	7123.27295    
622.0000      	16077.1704    	7425.18164    
622.5000      	16064.2570    	7924.90918    
623.0000      	16051.3644    	7755.90918    
623.5000      	16038.4924    	7803.36377    
624.0000      	16025.6410    	8043.09082    
624.5000      	16012.8102    	8645.36328    
625.0000      	16000.0000    	8437.90918    
625.5000      	15987.2102    	8394.18164    
626.0000      	15974.4409    	8647.72754    
626.5000      	15961.6919    	8590.00000    
627.0000      	15948.9633    	8843.45410    
627.5000      	15936.2550    	9053.81836    
628.0000      	15923.5669    	9180.72754    
628.5000      	15910.8990    	9003.72754    
629.0000      	15898.2512    	9492.09082    
629.5000      	15885.6235    	9524.36328    
630.0000      	15873.0159    	9624.81836    
630.5000      	15860.4282    	10024.36328   
631.0000      	15847.8605    	10391.63672   
631.5000      	15835.3127    	10529.09082   
632.0000      	15822.7848    	10839.09082   
632.5000      	15810.2767    	10977.90918   
633.0000      	15797.7883    	10982.36328   
633.5000      	15785.3197    	11030.45410   
634.0000      	15772.8707    	11767.90918   
634.5000      	15760.4413    	11859.63672   
635.0000      	15748.0315    	11883.18164   
635.5000      	15735.6412    	12272.45410   
636.0000      	15723.2704    	12480.36328   
636.5000      	15710.9191    	12396.18164   
637.0000      	15698.5871    	12974.36328   
637.5000      	15686.2745    	13005.09082   
638.0000      	15673.9812    	12989.09082   
638.5000      	15661.7071    	12885.18164   
639.0000      	15649.4523    	13385.81836   
639.5000      	15637.2166    	13535.72754   
640.0000      	15625.0000    	13917.36328   
640.5000      	15612.8025    	13907.36328   
641.0000      	15600.6240    	13775.90918   
641.5000      	15588.4645    	13901.36328   
642.0000      	15576.3240    	13310.45410   
642.5000      	15564.2023    	13681.72754   
643.0000      	15552.0995    	12965.27246   
643.5000      	15540.0155    	12627.09082   
644.0000      	15527.9503    	12471.00000   
644.5000      	15515.9038    	12449.90918   
645.0000      	15503.8760    	11728.09082   
645.5000      	15491.8668    	11399.54590   
646.0000      	15479.8762    	10650.36328   
646.5000      	15467.9041    	10478.00000   
647.0000      	15455.9505    	9647.54590    
647.5000      	15444.0154    	9291.45410    
648.0000      	15432.0988    	8718.72754    
648.5000      	15420.2005    	8584.27246    
649.0000      	15408.3205    	7720.27295    
649.5000      	15396.4588    	7301.45459    
650.0000      	15384.6154    	6610.45459    
650.5000      	15372.7902    	6302.09082    
651.0000      	15360.9831    	5868.00000    
651.5000      	15349.1942    	5362.81836    
652.0000      	15337.4233    	5500.36377    
652.5000      	15325.6705    	4999.09082    
653.0000      	15313.9357    	4603.27295    
653.5000      	15302.2188    	4534.81836    
654.0000      	15290.5199    	4290.81836    
654.5000      	15278.8388    	4069.27271    
655.0000      	15267.1756    	3846.36353    
655.5000      	15255.5301    	3991.72729    
656.0000      	15243.9024    	3874.18188    
656.5000      	15232.2925    	3729.63647    
657.0000      	15220.7002    	3559.18188    
657.5000      	15209.1255    	4102.27295    
658.0000      	15197.5684    	3622.36353    
658.5000      	15186.0289    	3436.90918    
659.0000      	15174.5068    	3173.00000    
659.5000      	15163.0023    	3529.45459    
660.0000      	15151.5152    	3167.36353    
660.5000      	15140.0454    	3245.63647    
661.0000      	15128.5930    	3472.54541    
661.5000      	15117.1580    	3490.09082    
662.0000      	15105.7402    	3255.72729    
662.5000      	15094.3396    	3369.63647    
663.0000      	15082.9563    	3117.45459    
663.5000      	15071.5901    	3111.45459    
664.0000      	15060.2410    	3033.27271    
664.5000      	15048.9090    	2837.36353    
665.0000      	15037.5940    	3045.72729    
665.5000      	15026.2960    	2951.81812    
666.0000      	15015.0150    	2920.81812    
666.5000      	15003.7509    	2891.45459    
667.0000      	14992.5037    	2945.81812    
667.5000      	14981.2734    	3062.27271    
668.0000      	14970.0599    	2942.72729    
668.5000      	14958.8631    	2670.63647    
669.0000      	14947.6831    	2767.72729    
669.5000      	14936.5198    	2624.36353    
670.0000      	14925.3731    	2683.09082    
670.5000      	14914.2431    	2839.36353    
671.0000      	14903.1297    	2949.09082    
671.5000      	14892.0328    	2692.09082    
672.0000      	14880.9524    	2648.45459    
672.5000      	14869.8885    	2613.90918    
673.0000      	14858.8410    	2703.27271    
673.5000      	14847.8099    	2695.36353    
674.0000      	14836.7953    	2809.54541    
674.5000      	14825.7969    	3181.72729    
675.0000      	14814.8148    	2998.54541    
675.5000      	14803.8490    	2726.63647    
676.0000      	14792.8994    	2773.00000    
676.5000      	14781.9660    	2894.81812    
677.0000      	14771.0487    	3126.63647    
677.5000      	14760.1476    	2813.72729    
678.0000      	14749.2625    	2838.54541    
678.5000      	14738.3935    	2852.09082    
679.0000      	14727.5405    	3248.63647    
679.5000      	14716.7035    	2844.54541    
680.0000      	14705.8824    	2782.90918    
680.5000      	14695.0771    	2508.45459    
681.0000      	14684.2878    	2581.00000    
681.5000      	14673.5143    	2869.90918    
682.0000      	14662.7566    	2755.45459    
682.5000      	14652.0147    	2910.36353    
683.0000      	14641.2884    	2666.63647    
683.5000      	14630.5779    	2709.63647    
684.0000      	14619.8830    	2582.00000    
684.5000      	14609.2038    	2760.18188    
685.0000      	14598.5401    	2690.27271    
685.5000      	14587.8920    	2422.18188    
686.0000      	14577.2595    	2611.45459    
686.5000      	14566.6424    	2509.00000    
687.0000      	14556.0408    	2470.72729    
687.5000      	14545.4545    	2377.36353    
688.0000      	14534.8837    	2904.90918    
688.5000      	14524.3282    	3275.00000    
689.0000      	14513.7881    	2525.00000    
689.5000      	14503.2632    	2524.00000    
690.0000      	14492.7536    	3039.81812    
690.5000      	14482.2592    	2480.18188    
691.0000      	14471.7800    	2734.45459    
691.5000      	14461.3160    	2580.54541    
692.0000      	14450.8671    	2719.63647    
692.5000      	14440.4332    	3293.54541    
693.0000      	14430.0144    	2818.54541    
693.5000      	14419.6107    	2629.18188    
694.0000      	14409.2219    	3037.63647    
694.5000      	14398.8481    	2715.09082    
695.0000      	14388.4892    	2654.00000    
695.5000      	14378.1452    	2609.90918    
696.0000      	14367.8161    	2436.54541    
696.5000      	14357.5018    	2787.00000    
697.0000      	14347.2023    	2643.72729    
697.5000      	14336.9176    	2665.45459    
698.0000      	14326.6476    	2881.18188    
698.5000      	14316.3923    	2766.00000    
699.0000      	14306.1516    	2750.27271    
699.5000      	14295.9257    	2706.00000    
700.0000      	14285.7143    	2652.36353    
700.5000      	14275.5175    	2829.90918    
701.0000      	14265.3352    	3147.72729    
701.5000      	14255.1675    	2562.72729    
702.0000      	14245.0142    	2672.36353    
702.5000      	14234.8754    	2587.72729    
703.0000      	14224.7511    	2509.18188    
703.5000      	14214.6411    	2512.27271    
704.0000      	14204.5455    	2272.27271    
704.5000      	14194.4642    	2732.90918    
705.0000      	14184.3972    	2743.45459    
705.5000      	14174.3444    	2625.18188    
706.0000      	14164.3059    	2899.72729    
706.5000      	14154.2817    	2884.27271    
707.0000      	14144.2716    	2784.27271    
707.5000      	14134.2756    	2624.45459    
708.0000      	14124.2938    	2520.45459    
708.5000      	14114.3260    	2501.81812    
709.0000      	14104.3724    	2760.18188    
709.5000      	14094.4327    	3132.27271    
710.0000      	14084.5070    	2640.09082    
710.5000      	14074.5954    	2683.36353    
711.0000      	14064.6976    	2808.81812    
711.5000      	14054.8138    	2831.63647    
712.0000      	14044.9438    	2754.90918    
712.5000      	14035.0877    	2763.63647    
713.0000      	14025.2454    	2644.81812    
713.5000      	14015.4170    	3064.18188    
714.0000      	14005.6022    	2839.63647    
714.5000      	13995.8013    	3009.36353    
715.0000      	13986.0140    	2453.36353    
715.5000      	13976.2404    	2614.18188    
716.0000      	13966.4804    	2708.72729    
716.5000      	13956.7341    	2712.36353    
717.0000      	13947.0014    	2710.09082    
717.5000      	13937.2822    	2603.00000    
718.0000      	13927.5766    	2728.72729    
718.5000      	13917.8845    	2734.09082    
719.0000      	13908.2058    	2603.09082    
719.5000      	13898.5407    	2736.45459    
720.0000      	13888.8889    	2930.63647    
720.5000      	13879.2505    	2700.45459    
721.0000      	13869.6255    	2628.18188    
721.5000      	13860.0139    	2602.81812    
722.0000      	13850.4155    	2662.18188    
722.5000      	13840.8304    	2239.09082    
723.0000      	13831.2586    	2540.90918    
723.5000      	13821.7001    	2476.27271    
724.0000      	13812.1547    	2346.45459    
724.5000      	13802.6225    	2368.90918    
725.0000      	13793.1034    	2624.09082    
725.5000      	13783.5975    	2604.27271    
726.0000      	13774.1047    	2471.45459    
726.5000      	13764.6249    	2674.00000    
727.0000      	13755.1582    	2481.36353    
727.5000      	13745.7045    	2533.36353    
728.0000      	13736.2637    	2667.90918    
728.5000      	13726.8360    	2668.72729    
729.0000      	13717.4211    	2747.00000    
729.5000      	13708.0192    	2696.27271    
730.0000      	13698.6301    	2704.27271    
730.5000      	13689.2539    	2677.36353    
731.0000      	13679.8906    	2767.90918    
731.5000      	13670.5400    	2684.09082    
732.0000      	13661.2022    	2594.63647    
732.5000      	13651.8771    	2821.45459    
733.0000      	13642.5648    	2634.09082    
733.5000      	13633.2652    	2820.00000    
734.0000      	13623.9782    	2810.36353    
734.5000      	13614.7039    	2526.72729    
735.0000      	13605.4422    	2789.54541    
735.5000      	13596.1931    	2616.45459    
736.0000      	13586.9565    	2683.18188    
736.5000      	13577.7325    	2880.18188    
737.0000      	13568.5210    	2773.63647    
737.5000      	13559.3220    	2535.36353    
738.0000      	13550.1355    	2584.90918    
738.5000      	13540.9614    	2526.81812    
739.0000      	13531.7997    	2375.18188    
739.5000      	13522.6504    	2480.81812    
740.0000      	13513.5135    	2505.00000    
740.5000      	13504.3889    	2294.72729    
741.0000      	13495.2767    	2598.81812    
741.5000      	13486.1767    	2936.36353    
742.0000      	13477.0889    	3083.27271    
742.5000      	13468.0135    	2448.09082    
743.0000      	13458.9502    	2537.54541    
743.5000      	13449.8991    	2618.54541    
744.0000      	13440.8602    	2576.90918    
744.5000      	13431.8334    	2735.54541    
745.0000      	13422.8188    	2624.54541    
745.5000      	13413.8162    	2371.81812    
746.0000      	13404.8257    	2387.45459    
746.5000      	13395.8473    	2649.18188    
747.0000      	13386.8809    	2418.36353    
747.5000      	13377.9264    	2677.63647    
748.0000      	13368.9840    	2480.72729    
748.5000      	13360.0534    	2597.81812    
749.0000      	13351.1348    	2501.45459    
749.5000      	13342.2282    	2450.81812    
750.0000      	13333.3333    	2462.72729    
750.5000      	13324.4504    	2609.81812    
751.0000      	13315.5792    	2721.27271    
751.5000      	13306.7199    	2850.36353    
752.0000      	13297.8723    	2959.36353    
752.5000      	13289.0365    	3009.27271    
753.0000      	13280.2125    	3149.45459    
753.5000      	13271.4001    	2820.72729    
754.0000      	13262.5995    	2642.09082    
754.5000      	13253.8105    	2843.27271    
755.0000      	13245.0331    	2681.27271    
755.5000      	13236.2674    	2580.36353    
756.0000      	13227.5132    	2661.09082    
756.5000      	13218.7707    	2817.36353    
757.0000      	13210.0396    	2653.45459    
757.5000      	13201.3201    	2583.90918    
758.0000      	13192.6121    	2739.27271    
758.5000      	13183.9156    	2755.36353    
759.0000      	13175.2306    	2979.72729    
759.5000      	13166.5569    	2515.27271    
760.0000      	13157.8947    	2667.72729    
760.5000      	13149.2439    	2993.81812    
761.0000      	13140.6045    	2434.81812    
761.5000      	13131.9764    	2911.09082    
762.0000      	13123.3596    	2657.27271    
762.5000      	13114.7541    	2602.54541    
763.0000      	13106.1599    	2585.63647    
763.5000      	13097.5769    	2728.72729    
764.0000      	13089.0052    	2641.18188    
764.5000      	13080.4447    	2346.18188    
765.0000      	13071.8954    	2465.72729    
765.5000      	13063.3573    	2673.00000    
766.0000      	13054.8303    	2756.63647    
766.5000      	13046.3144    	2809.54541    
767.0000      	13037.8096    	2646.63647    
767.5000      	13029.3160    	2294.09082    
768.0000      	13020.8333    	2665.81812    
768.5000      	13012.3617    	2842.00000    
769.0000      	13003.9012    	2792.27271    
769.5000      	12995.4516    	2807.63647    
770.0000      	12987.0130    	2695.54541    
770.5000      	12978.5853    	2616.72729    
771.0000      	12970.1686    	2837.90918    
771.5000      	12961.7628    	3115.00000    
772.0000      	12953.3679    	2594.81812    
772.5000      	12944.9838    	2571.81812    
773.0000      	12936.6106    	2698.09082    
773.5000      	12928.2482    	2723.72729    
774.0000      	12919.8966    	2715.81812    
774.5000      	12911.5558    	2574.63647    
775.0000      	12903.2258    	2668.18188    
775.5000      	12894.9065    	2720.00000    
776.0000      	12886.5979    	2650.09082    
776.5000      	12878.3001    	2569.81812    
777.0000      	12870.0129    	2602.45459    
777.5000      	12861.7363    	2420.36353    
778.0000      	12853.4704    	2563.00000    
778.5000      	12845.2152    	2942.09082    
779.0000      	12836.9705    	2814.63647    
779.5000      	12828.7364    	2866.54541    
780.0000      	12820.5128    	2484.81812    
780.5000      	12812.2998    	2416.09082    
781.0000      	12804.0973    	2539.27271    
781.5000      	12795.9053    	2789.72729    
782.0000      	12787.7238    	2719.54541    
782.5000      	12779.5527    	2525.09082    
783.0000      	12771.3921    	2408.00000    
783.5000      	12763.2419    	2539.18188    
784.0000      	12755.1020    	2419.36353    
784.5000      	12746.9726    	2868.09082    
785.0000      	12738.8535    	2622.45459    
785.5000      	12730.7447    	2587.00000    
786.0000      	12722.6463    	2499.18188    
786.5000      	12714.5582    	2507.00000    
787.0000      	12706.4803    	2829.00000    
787.5000      	12698.4127    	2642.54541    
788.0000      	12690.3553    	2988.00000    
788.5000      	12682.3082    	2655.18188    
789.0000      	12674.2712    	2750.36353    
789.5000      	12666.2445    	2643.36353    
790.0000      	12658.2278    	2557.45459    
790.5000      	12650.2214    	2614.18188    
791.0000      	12642.2250    	2487.45459    
791.5000      	12634.2388    	2585.00000    
792.0000      	12626.2626    	2716.63647    
792.5000      	12618.2965    	2637.90918    
793.0000      	12610.3405    	2531.90918    
793.5000      	12602.3945    	2437.36353    
794.0000      	12594.4584    	2756.09082    
794.5000      	12586.5324    	2774.63647    
795.0000      	12578.6164    	2793.36353    
795.5000      	12570.7102    	2717.54541    
796.0000      	12562.8141    	2501.90918    
796.5000      	12554.9278    	2479.36353    
797.0000      	12547.0514    	2729.27271    
797.5000      	12539.1850    	2638.45459    
798.0000      	12531.3283    	2629.72729    
798.5000      	12523.4815    	2457.00000    
799.0000      	12515.6446    	2398.45459    
799.5000      	12507.8174    	2735.18188    
800.0000      	12500.0000    	2903.63647    
